* Measurement data measured by REW V5.20 Beta 59
* Source: Headset (USB-C to 3.5mm Headphone Jack Adapter), MICROPHONE (Master Volume), R, volume: 0.169
* Format: 512k Log Swept Sine, 1 sweep at -6.0 dBFS with no timing reference
* Dated: Oct 15, 2020 6:14:20 PM
* REW Settings:
*  C-weighting compensation: Off
*  Target level: 75.0 dB
* Note: ; 
* Measurement: LZ A7 - off - Silver
* Smoothing: 1/48 octave
* Frequency Step: 1/24 octave
* Start Frequency: 20.600 Hz
*
* Freq(Hz)	SPL(dB)	Phase(degrees)
20.600000	80.121872	-124.9160
21.200001	80.246986	-126.7944
21.799999	80.336685	-128.4000
22.400000	80.422859	-130.3741
23.000000	80.537079	-132.4821
23.600000	80.625923	-134.1915
24.299999	80.690712	-135.9162
25.000000	80.757210	-137.4398
25.799999	80.777298	-139.7171
26.500000	80.886772	-141.6521
27.200001	80.939613	-142.9390
28.000000	80.989090	-144.9594
29.000000	81.037521	-147.0290
30.000000	81.074486	-149.0436
30.700001	81.097710	-150.3351
31.500000	81.115967	-151.9852
32.500000	81.132980	-153.8934
33.500000	81.150970	-155.5866
34.500000	81.146835	-157.3298
35.500000	81.153656	-158.8181
36.500000	81.150803	-160.4140
37.500000	81.143646	-161.9537
38.700001	81.122803	-163.6395
40.000000	81.089462	-165.3478
41.200001	81.054565	-166.8295
42.500000	81.023956	-168.5456
43.700001	80.977745	-169.8736
45.000000	80.930359	-171.2646
46.200001	80.877808	-172.5218
47.500000	80.847382	-173.8407
48.700001	80.799080	-175.1221
50.000000	80.727280	-176.3793
51.500000	80.648949	-177.5588
53.000000	80.588104	-178.7892
54.500000	80.515518	179.9964
56.000000	80.438057	178.8631
58.000000	80.324020	177.3973
60.000000	80.224678	176.2906
61.500000	80.147354	175.1901
63.000000	80.054947	174.2879
65.000000	79.949066	173.1635
67.000000	79.845924	172.1511
69.000000	79.729141	171.1664
71.000000	79.617012	170.2352
73.000000	79.505379	169.3917
75.000000	79.403664	168.5648
77.500000	79.260773	167.5712
80.000000	79.117126	166.7234
82.500000	78.972443	165.9850
85.000000	78.815102	165.2230
87.500000	78.700813	164.6706
90.000000	78.578072	163.9931
92.500000	78.455788	163.3683
95.000000	78.326202	162.7904
97.500000	78.213058	162.2891
100.000000	78.068901	161.8837
103.000000	77.941925	161.4249
106.000000	77.803558	160.9187
109.000000	77.661179	160.3884
112.000000	77.525185	160.1307
115.000000	77.384583	159.9106
118.000000	77.232452	159.7388
122.000000	77.074196	159.2696
125.000000	76.933899	159.2045
128.000000	76.820709	158.9574
132.000000	76.658211	158.7875
136.000000	76.496216	158.6617
140.000000	76.343384	158.5491
145.000000	76.163322	158.5302
150.000000	75.979820	158.5038
155.000000	75.810867	158.5382
160.000000	75.646042	158.6170
165.000000	75.483086	158.7598
170.000000	75.327782	158.8760
175.000000	75.180031	159.1545
180.000000	75.044121	159.3870
185.000000	74.900101	159.5629
190.000000	74.766960	159.8170
195.000000	74.641098	160.0836
200.000000	74.510422	160.4001
206.000000	74.365654	160.8089
212.000000	74.228584	161.2225
218.000000	74.096855	161.6450
224.000000	73.963692	162.1050
230.000000	73.848946	162.5553
236.000000	73.727554	163.0415
243.000000	73.592873	163.6528
250.000000	73.468590	164.2466
258.000000	73.328491	164.9355
265.000000	73.219078	165.5430
272.000000	73.109100	166.1784
280.000000	72.989479	166.9218
290.000000	72.854744	167.8395
300.000000	72.714325	168.8112
307.000000	72.637993	169.4728
315.000000	72.541908	170.2381
325.000000	72.432129	171.2005
335.000000	72.328079	172.1617
345.000000	72.227844	173.1618
355.000000	72.136978	174.1407
365.000000	72.057159	175.1062
375.000000	71.976410	176.1255
387.000000	71.891418	177.2820
400.000000	71.806458	178.5817
412.000000	71.729370	179.7600
425.000000	71.655312	-178.9780
437.000000	71.596718	-177.7867
450.000000	71.536598	-176.5049
462.000000	71.486183	-175.3476
475.000000	71.444824	-174.0525
487.000000	71.404099	-172.8956
500.000000	71.366447	-171.6225
515.000000	71.328079	-170.1789
530.000000	71.303818	-168.7259
545.000000	71.281303	-167.2843
560.000000	71.264023	-165.8431
580.000000	71.253464	-163.9378
600.000000	71.250511	-162.0259
615.000000	71.255005	-160.5952
630.000000	71.268082	-159.1712
650.000000	71.294182	-157.2474
670.000000	71.325584	-155.3946
690.000000	71.372833	-153.4913
710.000000	71.429977	-151.6058
730.000000	71.494774	-149.7382
750.000000	71.575050	-147.8782
775.000000	71.689270	-145.5836
800.000000	71.823082	-143.2827
825.000000	71.974747	-141.0484
850.000000	72.151566	-138.8729
875.000000	72.345833	-136.7573
900.000000	72.563599	-134.7531
925.000000	72.802856	-132.9152
950.000000	73.059708	-131.2325
975.000000	73.322052	-129.9167
1000.000000	73.536484	-128.9814
1030.000000	73.705154	-127.2095
1060.000000	73.996429	-125.3433
1090.000000	74.259613	-123.9215
1120.000000	74.495644	-122.3153
1150.000000	74.761688	-120.5339
1180.000000	75.069336	-118.8315
1220.000000	75.511253	-116.8447
1250.000000	75.854973	-115.5419
1280.000000	76.198975	-114.3663
1320.000000	76.657928	-112.9658
1360.000000	77.120087	-111.6637
1400.000000	77.591400	-110.4901
1450.000000	78.199089	-109.1666
1500.000000	78.831978	-108.0254
1550.000000	79.496590	-107.1031
1600.000000	80.197395	-106.4700
1650.000000	80.935944	-106.1823
1700.000000	81.712036	-106.3423
1750.000000	82.523926	-107.0484
1800.000000	83.361221	-108.4256
1850.000000	84.209564	-110.6235
1900.000000	85.039093	-113.7721
1950.000000	85.807983	-117.9542
2000.000000	86.463066	-123.1604
2060.000000	87.018478	-130.4565
2120.000000	87.258575	-138.2092
2180.000000	87.190010	-145.5574
2240.000000	86.889023	-151.8310
2300.000000	86.453072	-156.7961
2360.000000	85.964630	-160.5040
2430.000000	85.396454	-163.5259
2500.000000	84.867996	-165.4700
2580.000000	84.330841	-166.7062
2650.000000	83.921967	-167.1181
2720.000000	83.577156	-167.0008
2800.000000	83.278259	-166.3307
2900.000000	83.076668	-165.0480
3000.000000	83.082649	-163.8249
3070.000000	83.197968	-163.3187
3150.000000	83.418747	-163.3419
3250.000000	83.771835	-164.5478
3350.000000	84.132080	-167.2759
3450.000000	84.391861	-171.5745
3550.000000	84.437943	-177.1384
3650.000000	84.188698	176.7394
3750.000000	83.628815	170.9887
3870.000000	82.643669	165.5983
4000.000000	81.375046	162.2038
4120.000000	80.167816	161.2115
4250.000000	78.921234	162.0228
4370.000000	77.870728	164.1176
4500.000000	76.856918	167.4536
4620.000000	76.041794	171.3244
4750.000000	75.290237	176.1450
4870.000000	74.724327	-178.9567
5000.000000	74.246628	-173.2695
5150.000000	73.884041	-166.4011
5300.000000	73.725891	-159.4092
5450.000000	73.796921	-152.5359
5600.000000	74.112762	-146.2153
5800.000000	74.901230	-139.7950
6000.000000	75.630974	-137.4924
6150.000000	76.198753	-132.4326
6300.000000	77.734535	-133.8501
6500.000000	78.245308	-144.5695
6700.000000	77.304474	-150.8233
6900.000000	76.178490	-149.4270
7100.000000	75.587273	-143.3547
7300.000000	75.735062	-135.9574
7500.000000	76.573982	-129.6730
7750.000000	78.448700	-126.6290
8000.000000	80.608368	-133.5958
8250.000000	81.511398	-150.2754
8500.000000	80.660431	-164.4334
8750.000000	79.435913	-170.9720
9000.000000	78.547379	-174.1579
9250.000000	77.887428	-176.9525
9500.000000	77.324585	-179.2625
9750.000000	77.064362	177.7989
10000.000000	76.768219	171.3667
10300.000000	75.567398	162.0156
10600.000000	73.677338	157.8123
10900.000000	72.032639	159.3778
11200.000000	71.066002	163.7623
11500.000000	70.871414	168.4942
11800.000000	71.507622	171.4643
12200.000000	73.548325	167.4808
12500.000000	75.268845	153.1739
12800.000000	75.600922	130.4213
13200.000000	73.810013	107.2917
13600.000000	72.297554	95.5026
14000.000000	71.979523	82.9883
14500.000000	71.701599	54.2639
15000.000000	68.772354	20.3576
15500.000000	64.882866	1.2945
16000.000000	63.295486	-12.3638
16500.000000	61.733139	-52.3632
17000.000000	59.607456	-70.7349
17500.000000	61.046780	-103.8700
18000.000000	62.400970	-163.0734
18500.000000	60.905514	130.5118
19000.000000	58.540192	69.2911
19500.000000	56.643528	1.3564
