* Measurement data measured by REW V5.20 Beta 37
* Source: IEC-711 (3- USB Sound Device        ), MICROPHONE (Master Volume), R, volume: 0.530
* Format: 512k Log Swept Sine, 1 sweep at 0.0 dBFS Using a loopback as a timing reference
* Dated: Mar 7, 2020 8:34:46 PM
* REW Settings:
*  C-weighting compensation: Off
*  Target level: 75.0 dB
* Note: ; Delay 0.000 ms (0 mm, 0 in)  relative to Loopback with no timing offset
* Measurement: Audiofly AF1120 mk2 - R
* Smoothing: 1/48 octave
* Frequency Step: 1/24 octave
* Start Frequency: 20.600 Hz
*
* Freq(Hz)	SPL(dB)	Phase(degrees)
20.600000	89.923080	-158.7328
21.200001	89.936653	-158.7045
21.799999	89.930214	-158.6874
22.400000	89.908478	-158.7588
23.000000	89.879150	-158.9059
23.600000	89.853516	-159.1259
24.299999	89.832413	-159.4812
25.000000	89.818901	-159.8656
25.799999	89.821350	-160.2415
26.500000	89.838013	-160.5324
27.200001	89.853912	-160.7662
28.000000	89.867325	-160.8911
29.000000	89.881935	-160.9099
30.000000	89.882820	-160.8959
30.700001	89.875595	-160.8972
31.500000	89.860039	-160.9484
32.500000	89.831963	-161.0473
33.500000	89.811401	-161.1453
34.500000	89.803558	-161.2736
35.500000	89.797958	-161.3775
36.500000	89.797104	-161.3786
37.500000	89.800316	-161.3464
38.700001	89.788345	-161.2675
40.000000	89.769417	-161.0968
41.200001	89.750191	-160.9953
42.500000	89.727203	-160.8765
43.700001	89.717697	-160.8158
45.000000	89.699593	-160.7165
46.200001	89.696564	-160.5913
47.500000	89.679047	-160.4465
48.700001	89.670280	-160.2429
50.000000	89.653671	-160.0244
51.500000	89.648323	-159.7535
53.000000	89.626450	-159.5438
54.500000	89.607140	-159.3090
56.000000	89.588364	-158.9850
58.000000	89.581680	-158.6950
60.000000	89.561279	-158.8258
61.500000	89.528122	-157.9532
63.000000	89.554443	-157.6633
65.000000	89.538727	-157.1608
67.000000	89.519646	-156.7009
69.000000	89.512962	-156.3118
71.000000	89.511864	-155.8965
73.000000	89.504105	-155.4532
75.000000	89.498596	-154.9486
77.500000	89.492607	-154.4731
80.000000	89.487152	-153.8826
82.500000	89.486092	-153.3683
85.000000	89.484154	-152.8620
87.500000	89.474365	-152.3477
90.000000	89.470978	-151.8540
92.500000	89.469589	-151.3477
95.000000	89.464638	-150.8230
97.500000	89.456863	-150.3508
100.000000	89.447685	-149.8671
103.000000	89.433540	-149.2612
106.000000	89.420738	-148.6837
109.000000	89.406891	-148.1143
112.000000	89.398575	-147.5518
115.000000	89.372154	-146.9118
118.000000	89.348274	-146.5025
122.000000	89.312386	-145.6360
125.000000	89.316986	-145.0445
128.000000	89.291412	-144.3723
132.000000	89.262886	-143.5860
136.000000	89.241463	-142.7319
140.000000	89.203621	-141.9285
145.000000	89.174095	-140.8901
150.000000	89.131744	-139.8703
155.000000	89.096809	-138.8484
160.000000	89.063736	-137.7954
165.000000	89.027016	-136.7904
170.000000	88.978722	-135.6992
175.000000	88.944489	-134.6519
180.000000	88.914108	-133.5480
185.000000	88.877625	-132.5434
190.000000	88.844269	-131.4690
195.000000	88.803543	-130.4715
200.000000	88.771118	-129.3866
206.000000	88.731712	-128.1833
212.000000	88.687332	-126.9449
218.000000	88.652550	-125.6614
224.000000	88.615906	-124.4147
230.000000	88.576157	-123.1545
236.000000	88.539215	-121.9054
243.000000	88.482735	-120.4383
250.000000	88.446518	-119.0871
258.000000	88.400452	-117.4710
265.000000	88.355820	-116.0233
272.000000	88.310890	-114.6447
280.000000	88.262543	-113.0539
290.000000	88.198906	-111.0645
300.000000	88.157639	-109.0293
307.000000	88.099869	-107.7025
315.000000	88.059349	-106.1042
325.000000	87.989403	-104.1781
335.000000	87.938492	-102.2629
345.000000	87.880997	-100.3241
355.000000	87.818054	-98.3807
365.000000	87.767036	-96.4310
375.000000	87.711151	-94.5838
387.000000	87.637680	-92.2987
400.000000	87.565620	-89.8935
412.000000	87.505814	-87.6251
425.000000	87.431732	-85.2684
437.000000	87.358841	-82.9949
450.000000	87.291939	-80.6796
462.000000	87.225510	-78.4579
475.000000	87.150436	-76.1676
487.000000	87.089157	-73.9483
500.000000	87.023643	-71.6121
515.000000	86.945068	-68.8906
530.000000	86.869820	-66.2366
545.000000	86.783981	-63.5457
560.000000	86.709572	-60.9342
580.000000	86.607315	-57.4160
600.000000	86.498810	-53.9240
615.000000	86.428909	-51.2745
630.000000	86.356216	-48.6669
650.000000	86.250443	-45.1623
670.000000	86.158791	-41.7003
690.000000	86.065735	-38.2134
710.000000	85.972733	-34.7461
730.000000	85.884979	-31.3005
750.000000	85.801857	-27.7813
775.000000	85.707024	-23.3799
800.000000	85.620895	-18.9802
825.000000	85.534042	-14.6047
850.000000	85.463692	-10.1707
875.000000	85.402145	-5.6384
900.000000	85.370491	-1.2517
925.000000	85.338989	3.2052
950.000000	85.342621	7.6250
975.000000	85.364197	12.0756
1000.000000	85.386009	16.4879
1030.000000	85.518494	21.4670
1060.000000	85.641037	26.4055
1090.000000	85.797867	30.9695
1120.000000	85.971642	35.3871
1150.000000	86.158577	39.3605
1180.000000	86.349319	43.0288
1220.000000	86.583954	47.5771
1250.000000	86.737572	50.6212
1280.000000	86.866364	53.5480
1320.000000	87.016388	57.2308
1360.000000	87.107292	60.7168
1400.000000	87.171562	64.0930
1450.000000	87.212700	68.3044
1500.000000	87.219688	72.5620
1550.000000	87.200569	76.8835
1600.000000	87.166901	81.1894
1650.000000	87.130394	85.5471
1700.000000	87.099564	89.9192
1750.000000	87.063339	94.3429
1800.000000	87.035561	98.7349
1850.000000	87.015099	103.0958
1900.000000	87.004112	107.3984
1950.000000	86.999084	111.6937
2000.000000	86.996155	115.8641
2060.000000	87.028961	121.0007
2120.000000	87.070236	125.8825
2180.000000	87.127090	130.7223
2240.000000	87.206650	135.3941
2300.000000	87.310387	139.9679
2360.000000	87.428429	144.2963
2430.000000	87.594772	149.1577
2500.000000	87.767555	153.7209
2580.000000	88.003738	158.5465
2650.000000	88.212975	162.4335
2720.000000	88.433067	165.9253
2800.000000	88.685898	169.5644
2900.000000	88.982658	173.4268
3000.000000	89.243370	176.7887
3070.000000	89.412750	178.7503
3150.000000	89.584778	-179.2054
3250.000000	89.761032	-176.9957
3350.000000	89.924568	-175.0958
3450.000000	90.088150	-173.5378
3550.000000	90.260635	-172.4820
3650.000000	90.443268	-172.0591
3750.000000	90.617035	-172.5635
3870.000000	90.725960	-174.8092
4000.000000	90.565651	-179.1439
4120.000000	89.983208	175.9449
4250.000000	88.829544	171.0498
4370.000000	87.339394	168.5911
4500.000000	85.413162	169.1500
4620.000000	83.536888	173.2717
4750.000000	81.626350	-177.9592
4870.000000	80.236145	-166.1534
5000.000000	79.453278	-150.9479
5150.000000	79.565887	-133.4076
5300.000000	80.539162	-119.7538
5450.000000	81.911240	-110.9265
5600.000000	83.320686	-106.7471
5800.000000	84.893303	-106.5958
6000.000000	85.869812	-109.8431
6150.000000	86.239708	-112.5398
6300.000000	86.453873	-114.6855
6500.000000	86.723907	-116.3740
6700.000000	87.180801	-117.6116
6900.000000	87.964523	-119.7980
7100.000000	89.056381	-124.6973
7300.000000	90.257004	-134.4655
7500.000000	91.011482	-150.4138
7750.000000	90.272644	-173.7772
8000.000000	88.151283	170.8694
8250.000000	86.155876	164.5170
8500.000000	84.801178	160.2479
8750.000000	83.990036	157.7887
9000.000000	83.859657	154.6497
9250.000000	84.358871	148.6812
9500.000000	85.303825	136.6339
9750.000000	86.261276	114.5953
10000.000000	84.978760	83.2528
10300.000000	81.043594	58.8003
10600.000000	77.112297	48.2539
10900.000000	73.905846	44.1978
11200.000000	71.399902	43.1372
11500.000000	69.487549	43.6388
11800.000000	68.031845	45.0619
12200.000000	67.161903	47.8003
12500.000000	67.207222	48.8055
12800.000000	67.898933	46.8210
13200.000000	69.445877	37.8053
13600.000000	71.059090	20.3417
14000.000000	72.024017	-1.9107
14500.000000	73.044220	-26.9901
15000.000000	76.448303	-73.4099
15500.000000	74.190636	-117.3053
16000.000000	73.095139	-150.3100
16500.000000	71.961060	177.3584
17000.000000	71.300568	165.0738
17500.000000	77.083817	110.5286
18000.000000	75.536255	55.4546
18500.000000	74.048080	3.6776
19000.000000	71.957336	-45.2307
19500.000000	70.164482	-92.9208
