* Measurement data measured by REW V5.20 Beta 59
* Source: IEC-60711 (USB Sound Device        ), MICROPHONE (Master Volume), R, volume: 0.530
* Format: 512k Log Swept Sine, 1 sweep at -3.0 dBFS with no timing reference
* Dated: Aug 11, 2020 7:55:01 PM
* REW Settings:
*  C-weighting compensation: Off
*  Target level: 75.0 dB
* Note: ; 
* Measurement: CFA Andro 2.7 Ohm
* Smoothing: 1/48 octave
* Frequency Step: 1/24 octave
* Start Frequency: 20.000 Hz
*
* Freq(Hz)	SPL(dB)	Phase(degrees)
20.000000	71.886185	13.9883
20.600000	71.844078	13.8705
21.200001	71.863426	13.8248
21.799999	71.861008	13.5980
22.400000	71.834488	13.7915
23.000000	71.910789	14.2879
23.600000	72.071228	13.8797
24.299999	72.092758	12.1952
25.000000	71.849838	11.2735
25.799999	71.633690	12.4135
26.500000	71.692421	13.4752
27.200001	71.797745	13.5639
28.000000	71.849419	13.4030
29.000000	71.926300	13.3115
30.000000	71.970360	13.0998
30.700001	72.003235	13.2542
31.500000	72.076744	13.3085
32.500000	72.111977	13.2629
33.500000	72.160889	13.3569
34.500000	72.101875	13.0832
35.500000	72.019325	14.1641
36.500000	72.149612	14.4737
37.500000	72.076096	14.0057
38.700001	72.049850	14.6200
40.000000	71.994560	14.5148
41.200001	72.089020	14.8538
42.500000	72.000198	13.6777
43.700001	71.932526	14.5115
45.000000	71.967918	14.6300
46.200001	72.015678	15.2465
47.500000	72.191544	15.0971
48.700001	72.117355	13.7227
50.000000	71.917419	15.2475
51.500000	72.109467	14.9147
53.000000	72.017395	15.5208
54.500000	72.083107	14.8643
56.000000	72.066833	15.6296
58.000000	72.116341	15.7568
60.000000	71.949318	16.3462
61.500000	71.989296	16.2472
63.000000	71.832176	16.9458
65.000000	71.883591	17.0177
67.000000	71.986580	17.3953
69.000000	72.093765	17.2632
71.000000	71.858124	16.5593
73.000000	71.803253	17.7051
75.000000	71.773918	18.3397
77.500000	71.900200	18.6834
80.000000	71.764709	19.3742
82.500000	71.588646	19.3707
85.000000	71.655167	18.7654
87.500000	71.868149	18.8093
90.000000	71.945015	21.1515
92.500000	71.845589	20.3164
95.000000	71.685074	20.9919
97.500000	71.609367	20.3139
100.000000	71.368843	20.9698
103.000000	71.446907	21.8853
106.000000	71.543404	21.3680
109.000000	71.493538	23.0274
112.000000	71.537529	23.9559
115.000000	71.587021	23.6118
118.000000	71.476433	24.6502
122.000000	71.392700	25.1415
125.000000	71.334793	25.8556
128.000000	71.355110	26.8161
132.000000	71.285934	26.3798
136.000000	71.116753	27.9124
140.000000	71.037277	28.2815
145.000000	71.202377	29.1554
150.000000	71.138504	30.9239
155.000000	70.859909	30.5571
160.000000	70.988708	32.4772
165.000000	70.854637	33.8455
170.000000	70.811867	34.6399
175.000000	70.734619	34.9589
180.000000	70.776352	35.7749
185.000000	70.580414	37.4056
190.000000	70.498985	37.6694
195.000000	70.482468	39.5055
200.000000	70.524117	40.3209
206.000000	70.275742	41.2936
212.000000	70.362206	42.6560
218.000000	70.385666	43.5320
224.000000	70.168846	43.5039
230.000000	70.269997	45.8471
236.000000	70.082100	47.2929
243.000000	70.025513	48.2442
250.000000	70.113281	49.4426
258.000000	69.798019	51.2311
265.000000	69.788467	53.1621
272.000000	69.750214	54.5404
280.000000	69.711327	54.8116
290.000000	69.714760	58.0837
300.000000	69.673889	59.9540
307.000000	69.556549	61.6735
315.000000	69.353142	62.3857
325.000000	69.253029	63.5050
335.000000	69.132538	66.7253
345.000000	69.206551	68.6764
355.000000	69.011993	70.2867
365.000000	68.991196	71.9964
375.000000	69.008583	73.4500
387.000000	68.679741	78.0996
400.000000	68.766960	79.1106
412.000000	68.556816	81.6876
425.000000	68.470596	84.2728
437.000000	68.404778	86.7749
450.000000	68.413231	89.6344
462.000000	68.339859	90.1274
475.000000	68.193779	93.4696
487.000000	68.193985	94.7643
500.000000	68.197456	97.5383
515.000000	67.799751	101.3772
530.000000	67.931068	103.2074
545.000000	67.876549	106.5086
560.000000	67.776215	110.4630
580.000000	67.643074	114.2682
600.000000	67.644936	117.7212
615.000000	67.699982	121.0477
630.000000	67.455887	123.2031
650.000000	67.629829	127.7994
670.000000	67.451591	131.4744
690.000000	67.358131	134.4176
710.000000	67.458717	138.9258
730.000000	67.463196	142.8861
750.000000	67.332878	145.3082
775.000000	67.359634	149.8425
800.000000	67.233429	155.4977
825.000000	67.349266	160.9425
850.000000	67.361832	166.1109
875.000000	67.562515	170.3296
900.000000	67.524872	173.7542
925.000000	67.648857	178.3502
950.000000	67.700897	-176.3197
975.000000	67.997894	-172.3942
1000.000000	68.951973	-165.9020
1030.000000	68.409149	-163.4698
1060.000000	68.618179	-158.7277
1090.000000	68.832687	-155.4948
1120.000000	69.029846	-150.8484
1150.000000	69.223495	-146.5619
1180.000000	69.518715	-141.9588
1220.000000	69.829697	-138.5841
1250.000000	70.045692	-134.7374
1280.000000	70.145081	-131.2172
1320.000000	70.562103	-127.3581
1360.000000	70.767258	-122.4248
1400.000000	71.207825	-118.5109
1450.000000	71.562073	-114.4735
1500.000000	71.978569	-109.8319
1550.000000	72.358665	-106.0552
1600.000000	72.792938	-102.1903
1650.000000	73.201996	-99.5628
1700.000000	73.667084	-97.3368
1750.000000	74.062309	-95.0661
1800.000000	74.335358	-93.9258
1850.000000	74.684563	-93.0408
1900.000000	74.801659	-91.9200
1950.000000	74.921295	-91.9499
2000.000000	74.741150	-92.4051
2060.000000	74.642189	-91.0892
2120.000000	74.352638	-90.0506
2180.000000	74.101318	-88.1806
2240.000000	73.702805	-86.2275
2300.000000	73.299957	-83.3742
2360.000000	73.024147	-80.1830
2430.000000	72.598152	-75.6780
2500.000000	72.229294	-71.3938
2580.000000	71.918060	-65.7669
2650.000000	71.709190	-60.4594
2720.000000	71.634590	-55.2804
2800.000000	71.462845	-50.1469
2900.000000	71.459396	-43.4178
3000.000000	71.533234	-39.0227
3070.000000	71.590797	-33.5694
3150.000000	71.631470	-29.0530
3250.000000	71.876617	-24.2907
3350.000000	72.022522	-19.6575
3450.000000	72.267616	-15.7102
3550.000000	72.433975	-12.2179
3650.000000	72.649574	-9.6428
3750.000000	72.566658	-7.1783
3870.000000	72.621902	-2.1996
4000.000000	72.774658	4.0485
4120.000000	73.457458	8.8363
4250.000000	74.432159	10.8212
4370.000000	75.301842	8.8691
4500.000000	75.523972	2.6090
4620.000000	75.030739	-2.1760
4750.000000	74.002426	-4.8524
4870.000000	73.085487	-3.2167
5000.000000	72.260368	2.2903
5150.000000	71.798271	8.1829
5300.000000	71.544998	13.9452
5450.000000	71.619743	19.0725
5600.000000	71.637085	24.4659
5800.000000	72.018814	31.1364
6000.000000	72.808304	36.7283
6150.000000	73.803146	38.2106
6300.000000	74.681694	35.4757
6500.000000	75.359261	25.0264
6700.000000	74.298401	17.1805
6900.000000	72.996735	16.7573
7100.000000	72.005989	19.4639
7300.000000	71.298347	22.0476
7500.000000	70.677856	26.6868
7750.000000	70.406830	33.3773
8000.000000	70.582695	40.1188
8250.000000	71.133675	42.3568
8500.000000	71.303436	44.7737
8750.000000	72.109962	49.1088
9000.000000	73.684280	48.9873
9250.000000	75.267517	39.4493
9500.000000	75.493217	21.2380
9750.000000	74.058411	7.5701
10000.000000	72.124802	1.8456
10300.000000	70.207115	1.1356
10600.000000	68.511322	4.2861
10900.000000	67.825943	8.5174
11200.000000	67.352455	12.3150
11500.000000	67.280594	13.7577
11800.000000	67.329071	14.6771
12200.000000	67.613609	12.0068
12500.000000	67.911446	6.9836
12800.000000	67.941002	0.2862
13200.000000	67.035973	-11.8184
13600.000000	65.499863	-22.5723
14000.000000	64.169403	-25.0902
14500.000000	63.015366	-23.0486
15000.000000	63.430237	-23.7091
15500.000000	65.109589	-35.4938
16000.000000	65.961456	-61.2410
16500.000000	64.640633	-90.3457
17000.000000	62.571411	-116.0764
17500.000000	60.965420	178.3350
18000.000000	59.262718	22.2444
18500.000000	59.002251	-140.5664
19000.000000	57.605473	64.3779
19500.000000	55.398335	7.8535
20000.000000	53.546703	52.4570
