* Measurement data measured by REW V5.19
* Source: Microphone (2- USB Sound Device        ), no input selected, R, volume: no control
* Format: 1M Log Swept Sine, 1 sweep at -20.0 dBFS  With no timing reference
* Dated: Apr 25, 2019 4:53:17 PM
* REW Settings:
*  C-weighting compensation: Off
*  Target level: 75.0 dB
* Note: 
* Measurement: Andromeda R
* Smoothing: 1/48 octave
* Frequency Step: 1/24 octave
* Start Frequency: 20.000 Hz
*
* Freq(Hz)	SPL(dB)	Phase(degrees)
20.000000	73.111099	15.2449
20.600000	73.179527	14.8508
21.200001	73.213058	14.5985
21.799999	73.228683	14.3256
22.400000	73.229538	13.9653
23.000000	73.221970	13.5436
23.600000	73.217560	13.0803
24.299999	73.224045	12.4759
25.000000	73.239761	11.8367
25.799999	73.268448	11.1628
26.500000	73.304428	10.6435
27.200001	73.342766	10.1765
28.000000	73.380203	9.7324
29.000000	73.418694	9.2967
30.000000	73.446228	8.8836
30.700001	73.458168	8.5797
31.500000	73.467995	8.2035
32.500000	73.479225	7.6950
33.500000	73.496979	7.1723
34.500000	73.522720	6.6565
35.500000	73.554047	6.1876
36.500000	73.586517	5.7684
37.500000	73.614975	5.4053
38.700001	73.642883	4.9918
40.000000	73.662582	4.5594
41.200001	73.683807	4.1165
42.500000	73.702789	3.6092
43.700001	73.728035	3.1685
45.000000	73.757759	2.7133
46.200001	73.785530	2.3287
47.500000	73.812111	1.9417
48.700001	73.835632	1.5812
50.000000	73.857605	1.1742
51.500000	73.881691	0.7002
53.000000	73.909035	0.2526
54.500000	73.938499	-0.1984
56.000000	73.965500	-0.6195
58.000000	74.002281	-1.1837
60.000000	74.033714	-1.7565
61.500000	74.055443	-2.1442
63.000000	74.079956	-2.5496
65.000000	74.111740	-3.0862
67.000000	74.141548	-3.6152
69.000000	74.169273	-4.1346
71.000000	74.196404	-4.6483
73.000000	74.225098	-5.1407
75.000000	74.252434	-5.6611
77.500000	74.285439	-6.2894
80.000000	74.317329	-6.8989
82.500000	74.344963	-7.5053
85.000000	74.374855	-8.1122
87.500000	74.400764	-8.7193
90.000000	74.429749	-9.3284
92.500000	74.456291	-9.9216
95.000000	74.478439	-10.5099
97.500000	74.501648	-11.0887
100.000000	74.524010	-11.6725
103.000000	74.552330	-12.3517
106.000000	74.576721	-13.0602
109.000000	74.597847	-13.7703
112.000000	74.619957	-14.4412
115.000000	74.641159	-15.1048
118.000000	74.658409	-15.7768
122.000000	74.684074	-16.6606
125.000000	74.700714	-17.3153
128.000000	74.715797	-17.9699
132.000000	74.735374	-18.8318
136.000000	74.751007	-19.6970
140.000000	74.765274	-20.5460
145.000000	74.782341	-21.6009
150.000000	74.796646	-22.6342
155.000000	74.808121	-23.6511
160.000000	74.819031	-24.6929
165.000000	74.828857	-25.6946
170.000000	74.832497	-26.6850
175.000000	74.838272	-27.6818
180.000000	74.842102	-28.6743
185.000000	74.842896	-29.6569
190.000000	74.842430	-30.6311
195.000000	74.841057	-31.5901
200.000000	74.836258	-32.5398
206.000000	74.831703	-33.6697
212.000000	74.822601	-34.8083
218.000000	74.812645	-35.9261
224.000000	74.799179	-37.0308
230.000000	74.783562	-38.1308
236.000000	74.769829	-39.2314
243.000000	74.746468	-40.4861
250.000000	74.722054	-41.7355
258.000000	74.691742	-43.1318
265.000000	74.662033	-44.3559
272.000000	74.629089	-45.5639
280.000000	74.587280	-46.9326
290.000000	74.531357	-48.6178
300.000000	74.471298	-50.2805
307.000000	74.426208	-51.4112
315.000000	74.370216	-52.6947
325.000000	74.294922	-54.2659
335.000000	74.217812	-55.8120
345.000000	74.136551	-57.3209
355.000000	74.048767	-58.7955
365.000000	73.958412	-60.2423
375.000000	73.862457	-61.6586
387.000000	73.744675	-63.2957
400.000000	73.611694	-64.9981
412.000000	73.484360	-66.5239
425.000000	73.343880	-68.1162
437.000000	73.210213	-69.5287
450.000000	73.062897	-70.9897
462.000000	72.922295	-72.2831
475.000000	72.771996	-73.6391
487.000000	72.630302	-74.8124
500.000000	72.473892	-76.0361
515.000000	72.295090	-77.3696
530.000000	72.116074	-78.6476
545.000000	71.938416	-79.8261
560.000000	71.755852	-80.9468
580.000000	71.521675	-82.3226
600.000000	71.288429	-83.5776
615.000000	71.118004	-84.4393
630.000000	70.945427	-85.2404
650.000000	70.722519	-86.2225
670.000000	70.503433	-87.0737
690.000000	70.294579	-87.8228
710.000000	70.086212	-88.4888
730.000000	69.886673	-89.0517
750.000000	69.696266	-89.5068
775.000000	69.468597	-89.9309
800.000000	69.254433	-90.2336
825.000000	69.062828	-90.3943
850.000000	68.882965	-90.4296
875.000000	68.730438	-90.3162
900.000000	68.600868	-90.1102
925.000000	68.495415	-89.8204
950.000000	68.423607	-89.4220
975.000000	68.381783	-89.0238
1000.000000	68.369972	-88.7049
1030.000000	68.402718	-88.1720
1060.000000	68.478973	-87.8378
1090.000000	68.587128	-87.6721
1120.000000	68.727364	-87.7164
1150.000000	68.880669	-88.0235
1180.000000	69.043358	-88.5586
1220.000000	69.256569	-89.6014
1250.000000	69.404495	-90.5897
1280.000000	69.536644	-91.7119
1320.000000	69.691277	-93.3124
1360.000000	69.821548	-94.9987
1400.000000	69.935135	-96.6951
1450.000000	70.056114	-98.8075
1500.000000	70.162842	-100.9151
1550.000000	70.266640	-103.0363
1600.000000	70.362259	-105.1729
1650.000000	70.462219	-107.3589
1700.000000	70.547768	-109.6473
1750.000000	70.621674	-112.0172
1800.000000	70.675522	-114.4313
1850.000000	70.716339	-116.8623
1900.000000	70.743294	-119.3356
1950.000000	70.751099	-121.8695
2000.000000	70.737793	-124.3998
2060.000000	70.676987	-127.3922
2120.000000	70.587730	-130.2847
2180.000000	70.472466	-133.0637
2240.000000	70.329697	-135.6982
2300.000000	70.155357	-138.1336
2360.000000	69.964798	-140.3371
2430.000000	69.726532	-142.5854
2500.000000	69.479660	-144.4280
2580.000000	69.229317	-146.0096
2650.000000	69.040100	-147.2351
2720.000000	68.869667	-148.2632
2800.000000	68.697861	-149.1924
2900.000000	68.581985	-150.0768
3000.000000	68.514534	-151.1786
3070.000000	68.487808	-152.0001
3150.000000	68.461868	-153.1598
3250.000000	68.408020	-154.7555
3350.000000	68.279984	-156.3902
3450.000000	68.067543	-157.6087
3550.000000	67.788376	-157.8782
3650.000000	67.529816	-156.7737
3750.000000	67.417679	-154.3210
3870.000000	67.631706	-150.2451
4000.000000	68.394409	-146.1077
4120.000000	69.560501	-144.3417
4250.000000	71.084572	-146.5587
4370.000000	72.373001	-153.2341
4500.000000	73.140800	-164.4517
4620.000000	72.996910	-175.1798
4750.000000	72.151863	176.7388
4870.000000	71.192261	173.5320
5000.000000	70.325996	173.4505
5150.000000	69.691818	175.6477
5300.000000	69.416580	178.8871
5450.000000	69.452408	-177.6280
5600.000000	69.702141	-174.7531
5800.000000	70.184006	-170.5763
6000.000000	71.301186	-166.3930
6150.000000	72.586647	-166.1709
6300.000000	73.965157	-170.5121
6500.000000	75.024864	175.7964
6700.000000	74.164917	160.6731
6900.000000	72.147263	156.0443
7100.000000	70.629555	159.3804
7300.000000	69.640152	165.4065
7500.000000	69.109016	173.0024
7750.000000	69.078644	-177.0935
8000.000000	69.768242	-168.3600
8250.000000	71.114029	-164.8074
8500.000000	72.230240	-170.5155
8750.000000	71.799904	178.4238
9000.000000	69.921844	173.1174
9250.000000	67.556259	175.7680
9500.000000	65.443512	-175.0051
9750.000000	63.954453	-162.6412
10000.000000	62.759277	-149.0175
10300.000000	61.791885	-131.5496
10600.000000	61.253517	-114.5158
10900.000000	60.880829	-98.4983
11200.000000	60.531841	-83.6669
11500.000000	59.951405	-69.0320
11800.000000	59.127602	-51.9878
12200.000000	58.373466	-23.3090
12500.000000	58.670105	0.6484
12800.000000	59.845055	22.0313
13200.000000	61.876579	42.6044
13600.000000	63.552692	55.5902
14000.000000	64.575760	64.6333
14500.000000	64.910461	73.9279
15000.000000	63.958519	84.0758
15500.000000	62.525787	110.9267
16000.000000	64.414749	136.7813
16500.000000	65.791557	142.8120
17000.000000	65.617188	146.5892
17500.000000	64.160248	150.7903
18000.000000	62.081635	161.6043
18500.000000	60.496712	175.2734
19000.000000	59.568672	-175.4365
19500.000000	58.492844	-178.0143
