* Measurement data measured by REW V5.20 Beta 13
* Source: Input device not selected, no input selected, L, volume: no control
* Format: 1M Log Swept Sine, 1 sweep at -20.0 dBFS  With no timing reference
* Dated: Jul 11, 2019 5:38:22 PM
* REW Settings:
*  C-weighting compensation: Off
*  Target level: 75.0 dB
* Note: ; 
* Measurement: qdc Anole VX - L - 000
* Smoothing: 1/48 octave
* Frequency Step: 1/24 octave
* Start Frequency: 20.000 Hz
*
* Freq(Hz)	SPL(dB)	Phase(degrees)
20.000000	85.276909	0.6356
20.600000	84.889793	-10.6187
21.200001	83.385506	-13.4532
21.799999	82.674690	-6.4968
22.400000	83.228256	-2.9222
23.000000	83.515594	-4.6093
23.600000	83.343193	-5.1834
24.299999	83.424248	-3.8486
25.000000	83.654961	-5.0282
25.799999	83.481186	-6.5842
26.500000	83.405441	-6.0579
27.200001	83.515907	-6.4960
28.000000	83.474319	-7.9318
29.000000	83.375816	-8.6257
30.000000	83.392105	-9.7396
30.700001	83.368111	-10.7156
31.500000	83.332939	-11.5989
32.500000	83.332748	-12.5529
33.500000	83.325150	-13.5486
34.500000	83.325928	-14.2650
35.500000	83.309723	-15.1579
36.500000	83.267517	-15.5862
37.500000	83.287193	-16.3256
38.700001	83.215157	-17.1976
40.000000	83.221764	-18.2451
41.200001	83.147446	-19.1046
42.500000	83.143051	-19.9661
43.700001	83.129997	-20.6742
45.000000	83.093246	-21.7483
46.200001	83.072083	-22.2496
47.500000	83.050270	-23.3538
48.700001	82.998024	-24.1030
50.000000	82.946198	-24.7302
51.500000	82.925995	-25.6249
53.000000	82.889221	-26.3565
54.500000	82.847740	-27.3677
56.000000	82.808647	-28.1486
58.000000	82.779266	-29.1632
60.000000	82.798599	-30.7522
61.500000	82.652458	-31.2828
63.000000	82.631874	-31.9669
65.000000	82.492798	-32.6938
67.000000	82.479309	-33.7076
69.000000	82.432877	-34.7568
71.000000	82.461342	-35.7137
73.000000	82.404892	-36.8314
75.000000	82.337402	-37.4923
77.500000	82.252716	-38.5829
80.000000	82.187653	-39.8186
82.500000	82.124969	-40.9806
85.000000	82.065063	-42.2521
87.500000	81.993248	-43.3241
90.000000	81.933350	-44.3178
92.500000	81.862961	-45.4619
95.000000	81.790756	-46.4496
97.500000	81.713089	-47.5154
100.000000	81.633057	-48.5404
103.000000	81.546753	-49.6182
106.000000	81.449623	-50.9024
109.000000	81.345840	-52.0705
112.000000	81.267265	-53.0861
115.000000	81.183426	-54.2967
118.000000	81.101471	-55.5133
122.000000	80.982498	-56.9705
125.000000	80.792152	-57.6339
128.000000	80.803635	-58.2039
132.000000	80.657562	-59.6555
136.000000	80.488899	-61.2124
140.000000	80.373329	-62.4612
145.000000	80.183960	-63.9373
150.000000	80.068687	-65.2578
155.000000	79.904968	-66.7053
160.000000	79.728836	-67.9296
165.000000	79.591682	-69.2247
170.000000	79.458153	-70.3273
175.000000	79.255211	-71.7459
180.000000	79.096069	-72.9715
185.000000	79.019653	-73.9333
190.000000	78.876236	-74.9541
195.000000	78.752831	-75.8577
200.000000	78.609848	-76.8085
206.000000	78.464050	-77.9698
212.000000	78.305031	-79.0365
218.000000	78.149261	-80.0566
224.000000	78.014236	-81.0845
230.000000	77.877769	-82.1131
236.000000	77.740974	-82.8947
243.000000	77.596443	-83.8859
250.000000	77.471619	-84.7734
258.000000	77.353912	-85.8185
265.000000	77.241302	-86.8863
272.000000	77.149635	-87.8913
280.000000	77.012489	-89.1780
290.000000	76.809601	-90.6529
300.000000	76.638115	-91.5331
307.000000	76.550980	-92.7515
315.000000	76.451561	-93.7792
325.000000	76.311523	-94.7414
335.000000	76.201172	-95.9212
345.000000	76.070724	-96.8685
355.000000	75.967987	-97.8817
365.000000	75.873291	-98.8750
375.000000	75.764641	-99.8232
387.000000	75.676559	-100.9058
400.000000	75.566620	-101.9869
412.000000	75.491417	-103.0531
425.000000	75.412666	-104.0550
437.000000	75.356567	-105.1573
450.000000	75.298615	-106.0580
462.000000	75.246323	-107.0397
475.000000	75.231865	-107.9664
487.000000	75.185867	-108.8568
500.000000	75.155067	-109.7654
515.000000	75.134628	-110.6022
530.000000	75.186630	-111.3570
545.000000	75.240356	-112.4887
560.000000	75.291153	-113.6010
580.000000	75.322609	-115.3668
600.000000	75.373238	-116.8448
615.000000	75.427567	-118.1292
630.000000	75.447685	-119.2206
650.000000	75.478775	-120.6709
670.000000	75.524414	-122.1947
690.000000	75.578064	-123.5258
710.000000	75.622604	-124.8585
730.000000	75.665092	-125.9672
750.000000	75.718819	-127.0542
775.000000	75.836670	-128.2985
800.000000	75.959679	-129.4197
825.000000	76.117210	-130.6735
850.000000	76.316879	-131.9858
875.000000	76.511200	-133.3226
900.000000	76.699112	-134.7131
925.000000	76.911110	-135.9926
950.000000	77.120972	-137.6042
975.000000	77.316895	-139.0833
1000.000000	77.518555	-140.9469
1030.000000	77.793671	-142.4873
1060.000000	78.062637	-144.4194
1090.000000	78.358353	-146.4799
1120.000000	78.623749	-148.7001
1150.000000	78.869865	-151.0110
1180.000000	79.116325	-153.4968
1220.000000	79.407333	-157.0207
1250.000000	79.608452	-159.6854
1280.000000	79.744827	-162.3484
1320.000000	79.880058	-165.7754
1360.000000	79.993225	-169.1132
1400.000000	80.052734	-172.2535
1450.000000	80.105164	-175.8321
1500.000000	80.157463	-178.9765
1550.000000	80.186134	178.1371
1600.000000	80.205109	175.5680
1650.000000	80.247673	173.3134
1700.000000	80.281837	171.2486
1750.000000	80.335754	169.3871
1800.000000	80.392136	167.5876
1850.000000	80.456726	165.8618
1900.000000	80.541512	164.1719
1950.000000	80.641266	162.5212
2000.000000	80.787399	160.9222
2060.000000	80.899269	158.8560
2120.000000	81.054298	156.7585
2180.000000	81.184181	154.6293
2240.000000	81.294571	152.3718
2300.000000	81.390411	150.1150
2360.000000	81.433044	147.8707
2430.000000	81.456970	145.2874
2500.000000	81.408966	142.9897
2580.000000	81.296082	140.9663
2650.000000	81.180641	139.5302
2720.000000	81.102264	138.6943
2800.000000	81.052299	138.0898
2900.000000	81.127632	137.2632
3000.000000	81.212753	135.9021
3070.000000	81.243118	134.9199
3150.000000	81.224472	133.8103
3250.000000	81.148132	132.8280
3350.000000	81.053871	132.4012
3450.000000	81.002846	132.3124
3550.000000	80.972305	132.5240
3650.000000	80.985985	132.9517
3750.000000	81.050987	133.6901
3870.000000	81.226433	134.6657
4000.000000	81.515800	135.3729
4120.000000	81.882568	135.4263
4250.000000	82.302032	133.8565
4370.000000	82.577248	130.4560
4500.000000	82.510162	125.1304
4620.000000	81.931953	120.0966
4750.000000	80.810356	116.7667
4870.000000	79.508453	116.9474
5000.000000	78.038124	120.6258
5150.000000	76.526718	129.1803
5300.000000	75.375038	141.8795
5450.000000	74.908142	157.8923
5600.000000	75.310532	174.7357
5800.000000	77.203461	-165.9841
6000.000000	80.060928	-156.3783
6150.000000	81.948616	-156.9209
6300.000000	83.095200	-160.8720
6500.000000	83.708275	-165.8692
6700.000000	83.711151	-168.1846
6900.000000	83.645439	-167.4305
7100.000000	83.851540	-165.5911
7300.000000	84.294235	-165.3318
7500.000000	84.683708	-168.7579
7750.000000	84.079117	-177.9220
8000.000000	82.147316	176.5902
8250.000000	79.437408	179.3845
8500.000000	76.993286	-170.6900
8750.000000	75.075569	-156.7464
9000.000000	73.695045	-140.4008
9250.000000	72.812691	-123.7548
9500.000000	72.419373	-107.2550
9750.000000	72.412857	-93.8970
10000.000000	72.370407	-85.8410
10300.000000	70.708473	-79.3917
10600.000000	67.759216	-60.0699
10900.000000	66.051529	-28.2967
11200.000000	65.887405	3.6750
11500.000000	66.817116	32.1086
11800.000000	68.193085	55.8356
12200.000000	70.292572	80.0063
12500.000000	71.602470	93.7224
12800.000000	72.532494	105.1847
13200.000000	73.499222	119.9161
13600.000000	74.295502	133.0086
14000.000000	74.923157	144.2106
14500.000000	75.461670	155.0958
15000.000000	75.066475	159.0906
15500.000000	72.521378	166.3653
16000.000000	69.253326	-171.9853
16500.000000	67.073692	-141.5275
17000.000000	66.258240	-109.1658
17500.000000	66.520317	-80.9452
18000.000000	67.702667	-61.3099
18500.000000	68.524597	-57.2729
19000.000000	67.111801	-62.0533
19500.000000	64.109077	-60.1099
