* Measurement data measured by REW V5.20 Beta 26
* Source: Microphone (2- USB Sound Device        ), MICROPHONE (Master Volume), R, volume: 0.557
* Format: 1M Log Swept Sine, 1 sweep at 0.0 dBFS With no timing reference
* Dated: Oct 22, 2019 5:44:36 PM
* REW Settings:
*  C-weighting compensation: Off
*  Target level: 75.0 dB
* Note: ; 
* Measurement: BGVP ArtMagic V12 - L
* Smoothing: 1/48 octave
* Frequency Step: 1/24 octave
* Start Frequency: 20.600 Hz
*
* Freq(Hz)	SPL(dB)	Phase(degrees)
20.600000	83.544868	18.6326
21.200001	83.590317	18.1085
21.799999	83.689194	17.7899
22.400000	83.814003	16.8651
23.000000	83.844604	15.4064
23.600000	83.777458	14.3299
24.299999	83.749352	13.8539
25.000000	83.851013	13.1867
25.799999	83.956177	11.7058
26.500000	83.996078	10.5581
27.200001	84.057251	9.6371
28.000000	84.127510	8.4907
29.000000	84.177025	7.4055
30.000000	84.289497	6.4440
30.700001	84.357872	5.4721
31.500000	84.405426	4.4232
32.500000	84.488922	3.0812
33.500000	84.521545	1.5648
34.500000	84.561447	0.7199
35.500000	84.698074	-0.4338
36.500000	84.725014	-1.7997
37.500000	84.775833	-2.4463
38.700001	84.850319	-3.9315
40.000000	84.837624	-4.9100
41.200001	84.901230	-6.1358
42.500000	84.931648	-7.3668
43.700001	85.002174	-8.6966
45.000000	85.054321	-10.0841
46.200001	85.090271	-11.3278
47.500000	85.137108	-12.3900
48.700001	85.183830	-13.6521
50.000000	85.184914	-14.8530
51.500000	85.216911	-16.1781
53.000000	85.252541	-17.5541
54.500000	85.271584	-18.8836
56.000000	85.305862	-19.9873
58.000000	85.350235	-21.6112
60.000000	85.415886	-23.0841
61.500000	85.407402	-24.4010
63.000000	85.436913	-25.4573
65.000000	85.440697	-27.2201
67.000000	85.484344	-28.5077
69.000000	85.510628	-30.0442
71.000000	85.544640	-31.4111
73.000000	85.567413	-32.8411
75.000000	85.591492	-34.3292
77.500000	85.619194	-36.1742
80.000000	85.645996	-37.8974
82.500000	85.666458	-39.6749
85.000000	85.690536	-41.4215
87.500000	85.708351	-43.0214
90.000000	85.715752	-44.7660
92.500000	85.726128	-46.4739
95.000000	85.728592	-48.1336
97.500000	85.733673	-49.7667
100.000000	85.732826	-51.4044
103.000000	85.735352	-53.3265
106.000000	85.733185	-55.3352
109.000000	85.711258	-57.2268
112.000000	85.694351	-59.0365
115.000000	85.674042	-60.8789
118.000000	85.653252	-62.6793
122.000000	85.615097	-65.0365
125.000000	85.579391	-66.7803
128.000000	85.549583	-68.4964
132.000000	85.506584	-70.7617
136.000000	85.461624	-72.9627
140.000000	85.406509	-75.1280
145.000000	85.335373	-77.7587
150.000000	85.267250	-80.3017
155.000000	85.179123	-82.7499
160.000000	85.089424	-85.1732
165.000000	85.011246	-87.5327
170.000000	84.921936	-89.7079
175.000000	84.837837	-91.7569
180.000000	84.753235	-93.7733
185.000000	84.710068	-95.7267
190.000000	84.661407	-97.5245
195.000000	84.665504	-99.5022
200.000000	84.679253	-101.7253
206.000000	84.582520	-104.5279
212.000000	84.530922	-107.3120
218.000000	84.444702	-109.7476
224.000000	84.356689	-112.3041
230.000000	84.257988	-114.6728
236.000000	84.164078	-116.9833
243.000000	84.064186	-119.6067
250.000000	83.966599	-122.2497
258.000000	83.840294	-125.2989
265.000000	83.722900	-127.7621
272.000000	83.617264	-130.1286
280.000000	83.490463	-132.8077
290.000000	83.346367	-136.1506
300.000000	83.202560	-139.3843
307.000000	83.095963	-141.5440
315.000000	82.979820	-143.9917
325.000000	82.832382	-146.9314
335.000000	82.688835	-149.8722
345.000000	82.551636	-152.7016
355.000000	82.411865	-155.5021
365.000000	82.293167	-158.1661
375.000000	82.159447	-160.7925
387.000000	82.010078	-163.9102
400.000000	81.855904	-167.1288
412.000000	81.721619	-170.0610
425.000000	81.579056	-173.2082
437.000000	81.458107	-176.0273
450.000000	81.329155	-178.9649
462.000000	81.200829	178.3580
475.000000	81.083755	175.5682
487.000000	80.961403	172.9642
500.000000	80.863022	170.2141
515.000000	80.728127	167.1180
530.000000	80.608208	164.1588
545.000000	80.495178	161.1807
560.000000	80.391724	158.3460
580.000000	80.270401	154.5967
600.000000	80.148735	150.9989
615.000000	80.054703	148.2648
630.000000	79.971130	145.7234
650.000000	79.881882	142.2506
670.000000	79.782211	138.8937
690.000000	79.701820	135.6183
710.000000	79.631889	132.4262
730.000000	79.570045	129.3778
750.000000	79.515396	126.2318
775.000000	79.441353	122.4926
800.000000	79.401039	118.8368
825.000000	79.372574	115.3278
850.000000	79.352493	111.8986
875.000000	79.339630	108.5255
900.000000	79.353584	105.2819
925.000000	79.388657	102.0739
950.000000	79.430702	98.9487
975.000000	79.511948	95.8407
1000.000000	79.591629	92.4418
1030.000000	79.745499	88.9352
1060.000000	79.906326	85.1168
1090.000000	80.099037	81.1426
1120.000000	80.301048	76.9953
1150.000000	80.498215	72.6238
1180.000000	80.698715	68.0822
1220.000000	80.941765	61.8438
1250.000000	81.083145	56.9606
1280.000000	81.205139	52.0708
1320.000000	81.314438	45.5729
1360.000000	81.384766	39.2291
1400.000000	81.413498	33.0060
1450.000000	81.404457	25.7499
1500.000000	81.350571	18.8197
1550.000000	81.317421	12.4130
1600.000000	81.300072	6.3624
1650.000000	81.327812	0.5469
1700.000000	81.390266	-5.3676
1750.000000	81.432503	-11.5118
1800.000000	81.417488	-17.6395
1850.000000	81.334778	-23.5851
1900.000000	81.218140	-29.0135
1950.000000	81.125443	-34.0372
2000.000000	81.009521	-38.9175
2060.000000	80.880676	-44.0019
2120.000000	80.767029	-48.7214
2180.000000	80.685867	-53.0631
2240.000000	80.642242	-57.0165
2300.000000	80.627113	-60.6573
2360.000000	80.663956	-64.0756
2430.000000	80.756348	-67.7593
2500.000000	80.909500	-71.4089
2580.000000	81.125275	-75.3247
2650.000000	81.360535	-78.5259
2720.000000	81.654747	-81.5392
2800.000000	82.113495	-84.8251
2900.000000	82.822777	-89.4839
3000.000000	83.613121	-94.8480
3070.000000	84.228348	-99.0170
3150.000000	84.965660	-104.3555
3250.000000	85.926598	-112.1627
3350.000000	86.862694	-121.8254
3450.000000	87.574165	-133.6646
3550.000000	87.827431	-146.7944
3650.000000	87.548042	-159.3748
3750.000000	86.857567	-169.7454
3870.000000	85.781433	-178.2582
4000.000000	84.697441	176.9548
4120.000000	83.908859	175.5946
4250.000000	83.428070	176.5013
4370.000000	83.451477	178.7538
4500.000000	84.129494	-179.6668
4620.000000	85.140800	177.6562
4750.000000	85.757713	169.3497
4870.000000	85.448853	162.0938
5000.000000	84.789467	158.8889
5150.000000	84.341362	159.1256
5300.000000	84.308678	160.3665
5450.000000	84.499245	161.0066
5600.000000	84.680740	160.6485
5800.000000	84.637474	161.0051
6000.000000	84.747902	164.9292
6150.000000	85.201965	168.6986
6300.000000	85.893829	173.0611
6500.000000	87.877747	173.4099
6700.000000	89.170425	160.3016
6900.000000	87.692520	152.7145
7100.000000	86.780151	155.4852
7300.000000	86.414062	159.4212
7500.000000	86.265366	163.0920
7750.000000	86.109184	167.2325
8000.000000	86.169540	172.1899
8250.000000	86.050468	172.4379
8500.000000	84.886314	172.8421
8750.000000	83.149887	-179.6813
9000.000000	81.836914	-166.2830
9250.000000	81.245148	-151.9534
9500.000000	81.045532	-140.9476
9750.000000	80.323410	-134.5576
10000.000000	78.407944	-126.5726
10300.000000	75.349876	-106.4532
10600.000000	72.932411	-76.5184
10900.000000	71.291412	-42.9194
11200.000000	70.527885	-6.1304
11500.000000	70.714096	29.9636
11800.000000	71.639648	60.4678
12200.000000	71.654976	89.8165
12500.000000	70.200455	121.5339
12800.000000	70.538269	161.7017
13200.000000	72.261261	-164.2230
13600.000000	71.116524	-132.8586
14000.000000	69.412651	-91.5799
14500.000000	68.340469	-27.2360
15000.000000	68.253441	39.5122
15500.000000	69.472847	105.0979
16000.000000	71.210884	166.8106
16500.000000	73.079712	-134.5303
17000.000000	75.349884	-78.6127
17500.000000	77.527390	-32.9136
18000.000000	77.745895	4.9700
18500.000000	75.733253	51.3489
19000.000000	74.363609	109.9616
19500.000000	74.466682	150.2128
