* Measurement data measured by REW V5.20 Beta 59
* Source: Headset (USB-C to 3.5mm Headphone Jack Adapter), MICROPHONE (Master Volume), R, volume: 0.169
* Format: 512k Log Swept Sine, 1 sweep at -6.0 dBFS with no timing reference
* Dated: Oct 16, 2020 1:11:03 PM
* REW Settings:
*  C-weighting compensation: Off
*  Target level: 75.0 dB
* Note: ; 
* Measurement: KZ ASF - R
* Smoothing: 1/48 octave
* Frequency Step: 1/24 octave
* Start Frequency: 20.600 Hz
*
* Freq(Hz)	SPL(dB)	Phase(degrees)
20.600000	83.622581	55.3098
21.200001	83.807571	53.7037
21.799999	83.909599	52.4129
22.400000	83.976746	50.8649
23.000000	84.058990	49.2663
23.600000	84.136772	47.6891
24.299999	84.289642	46.1363
25.000000	84.410957	45.1906
25.799999	84.486122	43.2888
26.500000	84.653229	41.7534
27.200001	84.745522	40.6941
28.000000	84.832954	39.0424
29.000000	84.947578	37.2525
30.000000	85.036911	35.5448
30.700001	85.079155	34.3427
31.500000	85.173859	33.1722
32.500000	85.227104	31.6082
33.500000	85.305122	29.7638
34.500000	85.373566	28.4298
35.500000	85.432404	27.0123
36.500000	85.460487	25.7371
37.500000	85.515678	24.3711
38.700001	85.574417	22.7639
40.000000	85.622665	21.2180
41.200001	85.679924	19.7763
42.500000	85.708817	18.1550
43.700001	85.717911	16.9817
45.000000	85.766304	15.6070
46.200001	85.794594	14.3167
47.500000	85.801399	13.0024
48.700001	85.819778	11.7972
50.000000	85.841232	10.6732
51.500000	85.843239	9.2956
53.000000	85.857910	7.8761
54.500000	85.856606	6.5945
56.000000	85.864624	5.3844
58.000000	85.856125	3.7397
60.000000	85.869812	2.1653
61.500000	85.838440	1.0542
63.000000	85.832314	-0.0441
65.000000	85.810898	-1.4348
67.000000	85.790138	-2.7952
69.000000	85.763863	-4.0983
71.000000	85.740044	-5.4438
73.000000	85.707703	-6.6327
75.000000	85.671310	-7.8365
77.500000	85.625580	-9.2949
80.000000	85.577637	-10.6465
82.500000	85.527817	-12.0170
85.000000	85.474075	-13.3287
87.500000	85.417343	-14.5868
90.000000	85.368744	-16.0789
92.500000	85.292770	-17.0093
95.000000	85.230225	-18.1723
97.500000	85.168282	-19.2210
100.000000	85.106995	-20.2689
103.000000	85.021454	-21.5954
106.000000	84.938385	-22.8125
109.000000	84.852173	-23.9895
112.000000	84.768158	-25.1124
115.000000	84.684448	-26.2084
118.000000	84.595726	-27.2586
122.000000	84.474464	-28.6325
125.000000	84.385529	-29.6130
128.000000	84.294708	-30.5716
132.000000	84.170631	-31.7939
136.000000	84.047699	-32.9781
140.000000	83.924278	-34.0992
145.000000	83.769997	-35.4595
150.000000	83.613235	-36.7392
155.000000	83.458923	-37.9845
160.000000	83.300751	-39.1596
165.000000	83.145668	-40.2708
170.000000	82.990501	-41.3179
175.000000	82.830528	-42.2987
180.000000	82.675720	-43.3037
185.000000	82.527771	-44.2202
190.000000	82.375626	-45.0975
195.000000	82.223709	-45.9438
200.000000	82.072388	-46.7359
206.000000	81.894646	-47.6328
212.000000	81.716560	-48.4963
218.000000	81.541565	-49.3072
224.000000	81.369888	-50.0590
230.000000	81.197998	-50.7667
236.000000	81.028137	-51.4542
243.000000	80.832954	-52.1815
250.000000	80.641670	-52.8628
258.000000	80.427231	-53.5721
265.000000	80.241852	-54.1467
272.000000	80.059303	-54.6628
280.000000	79.856102	-55.2164
290.000000	79.604584	-55.8271
300.000000	79.359756	-56.3296
307.000000	79.194946	-56.6811
315.000000	79.007248	-57.0039
325.000000	78.779610	-57.3501
335.000000	78.557205	-57.6208
345.000000	78.343239	-57.8165
355.000000	78.134735	-57.9726
365.000000	77.930382	-58.0608
375.000000	77.732811	-58.0935
387.000000	77.504669	-58.0421
400.000000	77.267365	-57.9285
412.000000	77.058624	-57.7332
425.000000	76.840759	-57.4479
437.000000	76.648643	-57.1197
450.000000	76.451027	-56.6782
462.000000	76.277451	-56.2141
475.000000	76.098343	-55.6440
487.000000	75.944160	-55.0683
500.000000	75.781921	-54.3917
515.000000	75.613518	-53.5010
530.000000	75.448006	-52.5426
545.000000	75.306015	-51.5084
560.000000	75.169533	-50.3920
580.000000	75.011909	-48.8037
600.000000	74.880096	-47.0849
615.000000	74.799431	-45.7235
630.000000	74.733589	-44.3191
650.000000	74.661484	-42.3589
670.000000	74.619743	-40.2922
690.000000	74.603523	-38.1786
710.000000	74.613556	-35.9988
730.000000	74.649078	-33.7518
750.000000	74.712662	-31.4614
775.000000	74.830765	-28.5645
800.000000	74.995033	-25.6434
825.000000	75.204056	-22.7166
850.000000	75.452637	-19.8330
875.000000	75.748573	-17.0012
900.000000	76.081238	-14.2757
925.000000	76.458298	-11.6713
950.000000	76.869186	-9.2349
975.000000	77.315788	-7.0077
1000.000000	77.786156	-4.9913
1030.000000	78.386887	-2.8982
1060.000000	79.010162	-1.1723
1090.000000	79.646622	0.1850
1120.000000	80.289864	1.1408
1150.000000	80.926636	1.7284
1180.000000	81.552368	1.9862
1220.000000	82.361290	1.8250
1250.000000	82.937668	1.3665
1280.000000	83.484360	0.6539
1320.000000	84.159836	-0.6444
1360.000000	84.771049	-2.2788
1400.000000	85.306595	-4.1393
1450.000000	85.866898	-6.6687
1500.000000	86.305191	-9.2373
1550.000000	86.626976	-11.6696
1600.000000	86.852722	-13.8308
1650.000000	86.999298	-15.6190
1700.000000	87.089859	-16.9844
1750.000000	87.143906	-17.9332
1800.000000	87.178329	-18.4957
1850.000000	87.205948	-18.7031
1900.000000	87.237480	-18.6138
1950.000000	87.278748	-18.2940
2000.000000	87.334183	-17.8022
2060.000000	87.422035	-17.0776
2120.000000	87.531967	-16.2708
2180.000000	87.659325	-15.4718
2240.000000	87.797150	-14.7343
2300.000000	87.938156	-14.1006
2360.000000	88.071915	-13.5796
2430.000000	88.214912	-13.1092
2500.000000	88.337006	-12.7860
2580.000000	88.445686	-12.5698
2650.000000	88.506210	-12.4609
2720.000000	88.529175	-12.3477
2800.000000	88.505608	-12.1165
2900.000000	88.410828	-11.5151
3000.000000	88.265022	-10.4503
3070.000000	88.150314	-9.4212
3150.000000	88.019966	-8.0038
3250.000000	87.873535	-6.0157
3350.000000	87.752937	-3.9297
3450.000000	87.658051	-2.0359
3550.000000	87.553596	-0.4466
3650.000000	87.468330	0.2668
3750.000000	87.127426	-0.9823
3870.000000	85.939926	-1.0082
4000.000000	84.268661	4.5621
4120.000000	82.850693	16.4326
4250.000000	82.421722	34.0376
4370.000000	83.095505	48.4070
4500.000000	84.323463	59.3205
4620.000000	85.576454	65.8440
4750.000000	86.971222	69.4600
4870.000000	88.128731	69.4189
5000.000000	89.016243	66.0812
5150.000000	89.349533	60.5927
5300.000000	88.960381	55.7475
5450.000000	88.251060	53.1270
5600.000000	87.435570	52.5474
5800.000000	86.418327	52.3982
6000.000000	85.209480	50.0595
6150.000000	83.687477	47.1752
6300.000000	81.456451	46.8175
6500.000000	77.921768	54.3264
6700.000000	74.575172	71.1259
6900.000000	72.073807	94.6562
7100.000000	70.708954	120.9780
7300.000000	70.349724	146.4796
7500.000000	70.748932	169.7096
7750.000000	72.110199	-166.6871
8000.000000	73.541763	-151.4768
8250.000000	74.287697	-141.3781
8500.000000	74.474655	-127.8868
8750.000000	75.732826	-112.9204
9000.000000	77.033340	-110.3000
9250.000000	76.661469	-107.8944
9500.000000	76.089149	-100.9896
9750.000000	75.451752	-91.6617
10000.000000	75.141998	-80.5328
10300.000000	75.168831	-68.1354
10600.000000	75.493507	-58.9944
10900.000000	75.627182	-54.6760
11200.000000	74.890488	-52.9047
11500.000000	73.337761	-47.4699
11800.000000	71.793167	-35.9005
12200.000000	70.670097	-16.4880
12500.000000	70.688347	-1.0298
12800.000000	71.763741	11.6227
13200.000000	74.125969	11.0911
13600.000000	73.015434	-4.6743
14000.000000	70.395218	-1.1848
14500.000000	69.247726	5.4735
15000.000000	68.523209	-1.2817
15500.000000	64.912300	-27.6461
16000.000000	52.432114	8.2277
16500.000000	60.126579	56.7586
17000.000000	62.664093	33.5847
17500.000000	64.060638	3.4766
18000.000000	63.446518	-41.8080
18500.000000	60.054455	-72.2246
19000.000000	61.089832	-112.9240
19500.000000	59.064053	-159.5022
