* Measurement data measured by REW V5.20 Beta 24
* Source: Microphone (2- USB Sound Device        ), MICROPHONE (Master Volume), R, volume: 0.557
* Format: 1M Log Swept Sine, 1 sweep at 0.0 dBFS  With no timing reference
* Dated: Sep 12, 2019 9:11:19 PM
* REW Settings:
*  C-weighting compensation: Off
*  Target level: 75.0 dB
* Note: ; 
* Measurement: BLON BL-03 - R
* Smoothing: 1/48 octave
* Frequency Step: 1/24 octave
* Start Frequency: 20.600 Hz
*
* Freq(Hz)	SPL(dB)	Phase(degrees)
20.600000	91.608887	-152.2665
21.200001	91.621872	-152.3538
21.799999	91.601448	-152.4948
22.400000	91.561920	-152.6471
23.000000	91.525253	-152.8222
23.600000	91.499420	-153.0919
24.299999	91.474541	-153.5005
25.000000	91.457458	-153.8783
25.799999	91.459465	-154.2454
26.500000	91.466209	-154.5374
27.200001	91.465935	-154.7113
28.000000	91.468597	-154.7540
29.000000	91.464287	-154.8065
30.000000	91.429436	-154.8010
30.700001	91.405106	-154.8015
31.500000	91.366325	-154.8962
32.500000	91.312180	-154.8748
33.500000	91.312866	-154.9048
34.500000	91.298721	-155.1558
35.500000	91.279266	-155.0837
36.500000	91.285034	-155.0410
37.500000	91.250717	-154.9240
38.700001	91.218658	-154.5699
40.000000	91.165062	-154.3333
41.200001	91.122543	-154.1541
42.500000	91.067940	-154.1456
43.700001	91.024529	-154.0506
45.000000	90.992844	-153.9151
46.200001	90.966217	-153.7171
47.500000	90.934189	-153.4727
48.700001	90.893860	-153.2056
50.000000	90.848221	-152.9158
51.500000	90.796967	-152.5796
53.000000	90.752945	-152.2963
54.500000	90.697266	-151.9797
56.000000	90.656624	-151.5381
58.000000	90.605370	-151.1260
60.000000	90.506142	-150.7614
61.500000	90.463951	-150.1434
63.000000	90.438957	-149.7531
65.000000	90.381317	-149.2135
67.000000	90.315308	-148.5730
69.000000	90.261688	-148.0056
71.000000	90.196533	-147.4124
73.000000	90.145966	-146.8386
75.000000	90.082153	-146.2762
77.500000	90.011421	-145.5686
80.000000	89.938377	-144.7792
82.500000	89.868652	-144.0386
85.000000	89.787720	-143.2901
87.500000	89.712456	-142.5384
90.000000	89.632339	-141.7529
92.500000	89.557724	-141.0070
95.000000	89.476059	-140.2752
97.500000	89.387672	-139.5329
100.000000	89.315155	-138.6941
103.000000	89.215210	-137.7321
106.000000	89.112274	-136.8010
109.000000	89.009583	-135.8548
112.000000	88.904129	-134.8748
115.000000	88.799156	-133.8769
118.000000	88.694641	-132.8871
122.000000	88.543877	-131.5163
125.000000	88.438324	-130.4675
128.000000	88.329628	-129.3895
132.000000	88.183624	-128.0230
136.000000	88.035751	-126.5233
140.000000	87.890152	-125.0461
145.000000	87.710594	-123.2173
150.000000	87.538864	-121.3109
155.000000	87.350975	-119.3703
160.000000	87.173561	-117.4276
165.000000	86.997719	-115.4505
170.000000	86.818146	-113.4597
175.000000	86.653534	-111.4489
180.000000	86.472328	-109.3899
185.000000	86.303108	-107.3637
190.000000	86.134384	-105.2986
195.000000	85.958908	-103.1648
200.000000	85.790771	-101.0646
206.000000	85.585533	-98.4372
212.000000	85.376656	-95.6499
218.000000	85.203377	-92.8056
224.000000	85.060905	-89.9261
230.000000	84.935936	-87.2266
236.000000	84.811737	-84.8495
243.000000	84.635986	-82.0057
250.000000	84.435440	-79.1124
258.000000	84.222633	-75.6898
265.000000	84.026993	-72.6468
272.000000	83.844536	-69.5773
280.000000	83.632751	-66.0075
290.000000	83.384766	-61.4945
300.000000	83.141838	-56.9813
307.000000	82.979134	-53.7783
315.000000	82.797737	-50.0940
325.000000	82.581665	-45.4416
335.000000	82.374969	-40.7583
345.000000	82.204094	-36.0256
355.000000	82.018181	-31.2033
365.000000	81.861168	-26.4760
375.000000	81.728096	-21.5935
387.000000	81.592751	-15.8061
400.000000	81.486969	-9.5636
412.000000	81.425797	-3.8589
425.000000	81.381340	2.2369
437.000000	81.382942	7.7554
450.000000	81.391830	13.5313
462.000000	81.422760	18.7271
475.000000	81.494934	24.2981
487.000000	81.597961	29.0253
500.000000	81.679695	33.7080
515.000000	81.739868	38.9753
530.000000	81.800995	44.6664
545.000000	81.978706	49.5292
560.000000	82.029343	53.9481
580.000000	82.061745	60.0010
600.000000	82.065269	66.0592
615.000000	82.070007	70.5050
630.000000	82.061844	74.9780
650.000000	82.040321	80.8515
670.000000	82.008621	86.7165
690.000000	81.976128	92.5904
710.000000	81.929306	98.3811
730.000000	81.899246	104.2916
750.000000	81.863380	110.1121
775.000000	81.835640	117.4246
800.000000	81.809715	124.6652
825.000000	81.791267	131.8929
850.000000	81.796936	139.1356
875.000000	81.811829	146.2842
900.000000	81.846474	153.4705
925.000000	81.903473	160.5260
950.000000	81.996994	167.5735
975.000000	82.106071	174.5404
1000.000000	82.210785	-178.6592
1030.000000	82.454941	-170.6502
1060.000000	82.697189	-162.9227
1090.000000	82.976196	-155.4909
1120.000000	83.278725	-148.4326
1150.000000	83.599129	-141.8092
1180.000000	83.921143	-135.4889
1220.000000	84.350204	-127.6781
1250.000000	84.660347	-122.1588
1280.000000	84.957840	-116.9223
1320.000000	85.326324	-110.3470
1360.000000	85.668053	-104.0308
1400.000000	85.988724	-98.0107
1450.000000	86.360992	-90.7701
1500.000000	86.706993	-83.8296
1550.000000	87.054268	-77.1887
1600.000000	87.388954	-70.9254
1650.000000	87.719460	-64.8998
1700.000000	88.046768	-59.2878
1750.000000	88.373344	-53.9808
1800.000000	88.688782	-49.0724
1850.000000	88.996368	-44.5537
1900.000000	89.288300	-40.4263
1950.000000	89.556160	-36.6899
2000.000000	89.807114	-33.3260
2060.000000	90.047043	-29.7639
2120.000000	90.234383	-26.6609
2180.000000	90.359566	-23.9084
2240.000000	90.417038	-21.4393
2300.000000	90.405457	-19.1255
2360.000000	90.331352	-16.8877
2430.000000	90.172554	-14.2866
2500.000000	89.951454	-11.6000
2580.000000	89.646950	-8.3284
2650.000000	89.353210	-5.2880
2720.000000	89.043915	-2.0876
2800.000000	88.694435	1.7330
2900.000000	88.268585	6.6755
3000.000000	87.872070	11.7893
3070.000000	87.628891	15.3270
3150.000000	87.371643	19.3622
3250.000000	87.103012	24.3213
3350.000000	86.886650	29.0780
3450.000000	86.728287	33.6188
3550.000000	86.623253	37.8630
3650.000000	86.574791	41.8096
3750.000000	86.589142	45.4153
3870.000000	86.689713	49.1749
4000.000000	86.913757	52.3558
4120.000000	87.176819	54.2791
4250.000000	87.532814	55.2427
4370.000000	87.907471	55.0044
4500.000000	88.340660	53.3550
4620.000000	88.728058	50.3846
4750.000000	89.072678	45.5271
4870.000000	89.251671	39.6361
5000.000000	89.206070	32.0558
5150.000000	88.704536	22.9080
5300.000000	88.019455	17.8883
5450.000000	87.796707	8.9413
5600.000000	86.878281	0.8735
5800.000000	85.662453	-7.0831
6000.000000	84.594574	-13.7124
6150.000000	83.889313	-18.1951
6300.000000	83.299278	-22.4084
6500.000000	82.694542	-27.8914
6700.000000	82.335503	-33.6268
6900.000000	82.218658	-40.0410
7100.000000	82.337128	-47.3013
7300.000000	82.683434	-55.4811
7500.000000	83.355194	-64.8139
7750.000000	84.642334	-79.0907
8000.000000	86.827156	-98.1699
8250.000000	89.598061	-128.7693
8500.000000	91.106018	-178.1417
8750.000000	89.005783	131.9814
9000.000000	85.697289	98.4724
9250.000000	82.986450	73.9653
9500.000000	81.005142	52.7220
9750.000000	79.648499	32.4802
10000.000000	78.800049	12.0064
10300.000000	78.408852	-13.8002
10600.000000	78.691330	-42.2430
10900.000000	79.586052	-76.6068
11200.000000	80.317764	-120.3375
11500.000000	79.598351	-167.8870
11800.000000	78.405426	151.0046
12200.000000	77.464859	94.8386
12500.000000	76.390182	52.3616
12800.000000	75.540421	11.9207
13200.000000	75.027374	-43.4686
13600.000000	74.811134	-103.2238
14000.000000	74.636070	-165.4510
14500.000000	75.194313	113.3578
15000.000000	76.859795	16.1781
15500.000000	75.152641	-106.8666
16000.000000	69.098755	153.4124
16500.000000	64.509872	71.4370
17000.000000	61.360092	-10.4358
17500.000000	58.838375	-93.2323
18000.000000	57.145710	178.4539
18500.000000	56.092331	81.1670
19000.000000	53.793915	-31.8394
19500.000000	48.355564	127.0243
