* Measurement data measured by REW V5.20
* Source: Headset (USB-C to 3.5mm Headphone Jack Adapter), MICROPHONE (Master Volume), R, volume: 0.260
* Format: 512k Log Swept Sine, 1 sweep at 0.0 dBFS with no timing reference
* Dated: May 2, 2022 12:52:53 PM
* REW Settings:
*  C-weighting compensation: Off
*  Target level: 75.0 dB
* Note: ; 
* Measurement: Chu R
* Smoothing: 1/48 octave
* Frequency Step: 1/24 octave
* Start Frequency: 20.600 Hz
*
* Freq(Hz)	SPL(dB)	Phase(degrees)
20.600000	85.857330	-121.6368
21.200001	85.941284	-123.4883
21.799999	86.018066	-125.1979
22.400000	86.071930	-126.8999
23.000000	86.091873	-128.6743
23.600000	86.105713	-130.3794
24.299999	86.122116	-132.1331
25.000000	86.130577	-133.8307
25.799999	86.136002	-135.7378
26.500000	86.135880	-137.2953
27.200001	86.118401	-138.7760
28.000000	86.082161	-140.5219
29.000000	86.084900	-142.4093
30.000000	86.051231	-144.4362
30.700001	86.015579	-145.8430
31.500000	85.969154	-147.1765
32.500000	85.944389	-148.8808
33.500000	85.888733	-150.4791
34.500000	85.855225	-151.9333
35.500000	85.801048	-153.4998
36.500000	85.740234	-154.7819
37.500000	85.696648	-156.1086
38.700001	85.624847	-157.6018
40.000000	85.572655	-159.2334
41.200001	85.491455	-160.6183
42.500000	85.422020	-161.9262
43.700001	85.372284	-163.2464
45.000000	85.309509	-164.4216
46.200001	85.250854	-165.5987
47.500000	85.161942	-166.7187
48.700001	85.118797	-167.8407
50.000000	85.027710	-168.6822
51.500000	84.945847	-169.8297
53.000000	84.844765	-170.8927
54.500000	84.745216	-171.8546
56.000000	84.691925	-172.7848
58.000000	84.579758	-173.9819
60.000000	84.497482	-175.0077
61.500000	84.400368	-175.9751
63.000000	84.311554	-176.6091
65.000000	84.193291	-177.5422
67.000000	84.112450	-178.3164
69.000000	83.999352	-179.0947
71.000000	83.902260	-179.8247
73.000000	83.782349	179.4700
75.000000	83.707039	178.7682
77.500000	83.582893	178.1664
80.000000	83.462257	177.4550
82.500000	83.350128	176.8053
85.000000	83.233223	176.3044
87.500000	83.133728	175.7621
90.000000	82.942970	175.8348
92.500000	82.916992	174.9293
95.000000	82.806351	174.5748
97.500000	82.719460	174.1373
100.000000	82.624680	173.9137
103.000000	82.512955	173.6320
106.000000	82.425339	173.3374
109.000000	82.345482	173.1039
112.000000	82.229095	172.9514
115.000000	82.126976	172.7319
118.000000	82.027336	172.6245
122.000000	81.931679	172.5231
125.000000	81.843292	172.4356
128.000000	81.770378	172.2133
132.000000	81.679840	172.2136
136.000000	81.566010	172.1638
140.000000	81.502037	172.2915
145.000000	81.382271	172.1755
150.000000	81.272224	172.2983
155.000000	81.179565	172.4568
160.000000	81.080711	172.5718
165.000000	80.997574	172.7161
170.000000	80.903900	172.8779
175.000000	80.831566	173.0203
180.000000	80.747986	173.2419
185.000000	80.656326	173.5916
190.000000	80.604584	173.7437
195.000000	80.535591	173.9384
200.000000	80.471970	174.1785
206.000000	80.393188	174.5532
212.000000	80.331589	174.8208
218.000000	80.282593	175.1635
224.000000	80.207993	175.5001
230.000000	80.155823	175.8793
236.000000	80.095909	176.2498
243.000000	80.040665	176.6152
250.000000	79.979919	177.0482
258.000000	79.923889	177.5363
265.000000	79.871239	177.9451
272.000000	79.822166	178.3533
280.000000	79.773506	178.8331
290.000000	79.716713	179.4299
300.000000	79.663338	-179.9257
307.000000	79.622787	-179.5365
315.000000	79.588303	-179.0586
325.000000	79.545120	-178.4235
335.000000	79.503868	-177.8623
345.000000	79.470749	-177.2686
355.000000	79.431129	-176.6794
365.000000	79.403076	-176.0586
375.000000	79.374107	-175.4642
387.000000	79.339432	-174.7833
400.000000	79.308289	-174.0013
412.000000	79.278206	-173.2734
425.000000	79.255486	-172.5381
437.000000	79.233261	-171.8288
450.000000	79.211243	-171.0854
462.000000	79.192566	-170.4025
475.000000	79.180038	-169.6243
487.000000	79.166000	-168.9558
500.000000	79.155785	-168.2081
515.000000	79.143593	-167.3508
530.000000	79.135429	-166.4763
545.000000	79.130180	-165.6104
560.000000	79.126427	-164.7587
580.000000	79.122330	-163.5764
600.000000	79.132751	-162.3979
615.000000	79.135391	-161.5116
630.000000	79.141098	-160.6303
650.000000	79.156998	-159.4753
670.000000	79.178177	-158.2659
690.000000	79.207687	-157.0298
710.000000	79.241234	-155.8192
730.000000	79.279762	-154.5753
750.000000	79.326912	-153.3115
775.000000	79.396599	-151.7543
800.000000	79.473694	-150.1703
825.000000	79.573517	-148.6008
850.000000	79.690247	-147.0194
875.000000	79.821106	-145.5003
900.000000	79.967293	-143.9733
925.000000	80.132217	-142.5330
950.000000	80.320999	-141.1369
975.000000	80.543900	-139.8104
1000.000000	80.820946	-139.1888
1030.000000	80.970879	-138.7497
1060.000000	81.131271	-137.3433
1090.000000	81.384178	-136.1718
1120.000000	81.643387	-135.3516
1150.000000	81.894966	-134.7661
1180.000000	82.130737	-134.2823
1220.000000	82.436340	-133.8729
1250.000000	82.643623	-133.6467
1280.000000	82.837769	-133.5185
1320.000000	83.079247	-133.2976
1360.000000	83.299698	-133.1701
1400.000000	83.511917	-133.0135
1450.000000	83.756149	-132.8294
1500.000000	83.990715	-132.6794
1550.000000	84.219788	-132.5167
1600.000000	84.442879	-132.3472
1650.000000	84.663879	-132.2121
1700.000000	84.884521	-132.0970
1750.000000	85.103348	-132.0159
1800.000000	85.322098	-132.0035
1850.000000	85.539856	-132.0356
1900.000000	85.756851	-132.1432
1950.000000	85.969223	-132.3163
2000.000000	86.178741	-132.5540
2060.000000	86.421890	-132.9589
2120.000000	86.656929	-133.4536
2180.000000	86.877815	-134.0564
2240.000000	87.086235	-134.7505
2300.000000	87.278725	-135.5316
2360.000000	87.452126	-136.3830
2430.000000	87.630569	-137.4391
2500.000000	87.782272	-138.5409
2580.000000	87.923569	-139.7984
2650.000000	88.020058	-140.8763
2720.000000	88.095009	-141.9054
2800.000000	88.158051	-142.9916
2900.000000	88.213120	-144.2117
3000.000000	88.251396	-145.2691
3070.000000	88.270996	-145.9180
3150.000000	88.292252	-146.5861
3250.000000	88.319000	-147.3231
3350.000000	88.348885	-147.9875
3450.000000	88.385391	-148.6118
3550.000000	88.427856	-149.2219
3650.000000	88.476784	-149.8447
3750.000000	88.531448	-150.5165
3870.000000	88.602905	-151.4028
4000.000000	88.683899	-152.5004
4120.000000	88.758621	-153.6766
4250.000000	88.831863	-155.1656
4370.000000	88.884689	-156.7612
4500.000000	88.917542	-158.7580
4620.000000	88.912643	-160.8432
4750.000000	88.854340	-163.3384
4870.000000	88.739700	-165.7980
5000.000000	88.538574	-168.5282
5150.000000	88.199348	-171.5886
5300.000000	87.751495	-174.3402
5450.000000	87.211807	-176.5754
5600.000000	86.605042	-178.1651
5800.000000	85.748055	-179.1991
6000.000000	84.888275	-179.0324
6150.000000	84.272385	-178.2062
6300.000000	83.696671	-176.8459
6500.000000	83.028488	-174.3207
6700.000000	82.480408	-171.5417
6900.000000	82.018394	-168.3845
7100.000000	81.690048	-164.8962
7300.000000	81.508949	-161.5359
7500.000000	81.441307	-158.4527
7750.000000	81.526909	-155.0645
8000.000000	81.809067	-152.5771
8250.000000	82.266251	-151.5319
8500.000000	82.849670	-152.5571
8750.000000	83.432373	-156.3413
9000.000000	83.789734	-163.0396
9250.000000	83.675743	-171.6829
9500.000000	82.992355	179.8719
9750.000000	81.882210	173.5270
10000.000000	80.579041	169.9820
10300.000000	78.993423	169.2699
10600.000000	77.545570	172.4816
10900.000000	76.512894	-179.5808
11200.000000	76.640671	-167.2067
11500.000000	78.748535	-157.8443
11800.000000	81.664169	-162.2298
12200.000000	84.216888	178.2101
12500.000000	85.695053	159.9026
12800.000000	86.783661	133.2775
13200.000000	85.123688	89.6568
13600.000000	80.858971	62.6791
14000.000000	77.003296	48.8557
14500.000000	73.384933	36.7266
15000.000000	70.693977	24.3251
15500.000000	68.677704	9.2030
16000.000000	67.137604	-10.3239
16500.000000	65.953476	-34.9223
17000.000000	64.990555	-64.8141
17500.000000	64.327400	-100.9301
18000.000000	63.632889	-143.0077
18500.000000	63.388588	168.9706
19000.000000	63.705490	107.0019
19500.000000	63.129604	22.9065
