* Measurement data measured by REW V5.20
* Source: Headset (USB-C to 3.5mm Headphone Jack Adapter), MICROPHONE (Master Volume), R, volume: 0.260
* Format: 256k Log Swept Sine, 1 sweep at -6.0 dBFS with no timing reference
* Dated: Jul 10, 2021 1:54:16 PM
* REW Settings:
*  C-weighting compensation: Off
*  Target level: 75.0 dB
* Note: ; 
* Measurement: Delta Studio R
* Smoothing: 1/48 octave
* Frequency Step: 1/24 octave
* Start Frequency: 20.600 Hz
*
* Freq(Hz)	SPL(dB)	Phase(degrees)
20.600000	47.674778	149.6293
21.200001	48.722061	149.3829
21.799999	49.651382	147.3705
22.400000	49.271656	150.6921
23.000000	48.688675	164.4265
23.600000	49.311310	170.8334
24.299999	49.086926	152.8763
25.000000	47.037594	126.0594
25.799999	46.305702	143.4278
26.500000	51.648220	156.9234
27.200001	53.382103	143.7664
28.000000	50.186859	134.6526
29.000000	49.472145	156.3025
30.000000	52.823505	137.2443
30.700001	52.522663	129.1477
31.500000	51.699669	133.4418
32.500000	51.184528	133.9532
33.500000	51.615181	131.7558
34.500000	52.226974	121.2961
35.500000	49.844791	124.7568
36.500000	51.255539	140.1646
37.500000	53.047844	129.7689
38.700001	53.170807	124.0376
40.000000	53.654892	125.1839
41.200001	54.225193	123.2462
42.500000	53.223652	125.8272
43.700001	53.067570	130.6351
45.000000	53.940025	126.5059
46.200001	55.051651	123.6671
47.500000	54.800148	125.8173
48.700001	55.610531	123.6624
50.000000	55.476448	119.2746
51.500000	55.302795	121.8711
53.000000	55.395653	117.7534
54.500000	55.765900	119.6059
56.000000	56.065357	119.1303
58.000000	56.769142	117.6418
60.000000	55.765137	121.3697
61.500000	56.323021	116.8593
63.000000	56.547905	117.8903
65.000000	56.788078	117.4019
67.000000	57.505722	115.9995
69.000000	57.515762	117.4257
71.000000	58.023502	116.2156
73.000000	57.965939	110.9492
75.000000	58.456627	114.0578
77.500000	58.594604	116.6933
80.000000	59.296001	115.4131
82.500000	59.379951	115.9847
85.000000	59.905678	115.8046
87.500000	59.806011	116.3817
90.000000	60.290569	114.7538
92.500000	60.571968	115.0044
95.000000	60.719116	115.3419
97.500000	60.937378	114.9307
100.000000	61.105721	115.0035
103.000000	61.576332	114.2575
106.000000	61.833748	114.3598
109.000000	62.235493	115.1642
112.000000	62.520786	115.0091
115.000000	62.906456	114.0186
118.000000	63.006550	113.7750
122.000000	63.579273	113.5153
125.000000	63.822327	113.7515
128.000000	64.168839	113.3508
132.000000	64.623535	113.7013
136.000000	64.890488	113.0391
140.000000	65.267326	113.5391
145.000000	65.904930	113.0242
150.000000	66.293671	113.7293
155.000000	66.897858	112.3357
160.000000	67.342522	112.7866
165.000000	67.671913	112.2416
170.000000	68.181274	112.0128
175.000000	68.557968	110.7819
180.000000	69.144592	111.6183
185.000000	69.618042	110.7216
190.000000	70.075150	109.7368
195.000000	70.467529	108.9146
200.000000	70.938683	108.8948
206.000000	71.335556	108.6506
212.000000	71.998428	105.7522
218.000000	72.513725	101.9981
224.000000	72.823380	104.3535
230.000000	72.973618	102.9659
236.000000	73.283936	102.3041
243.000000	73.732025	101.3244
250.000000	74.073502	99.4955
258.000000	74.415268	100.0864
265.000000	74.871803	100.4729
272.000000	75.585175	100.2812
280.000000	76.350250	99.6210
290.000000	77.191940	97.5100
300.000000	78.089027	94.4074
307.000000	78.621956	92.0766
315.000000	79.179390	89.7020
325.000000	79.837891	86.1869
335.000000	80.495514	82.8207
345.000000	81.087708	79.2523
355.000000	81.655777	75.4872
365.000000	82.184387	71.6207
375.000000	82.677002	67.7075
387.000000	83.241302	62.8595
400.000000	83.795685	57.4682
412.000000	84.276093	52.5328
425.000000	84.768234	46.9739
437.000000	85.195694	41.6964
450.000000	85.607018	35.8728
462.000000	85.989075	30.1117
475.000000	86.430443	23.5494
487.000000	86.645996	17.5662
500.000000	86.926727	10.5154
515.000000	87.145035	1.6625
530.000000	87.219025	-7.7780
545.000000	87.092766	-17.5470
560.000000	86.738495	-27.3536
580.000000	85.961349	-39.5514
600.000000	84.872505	-50.2358
615.000000	83.925949	-56.9370
630.000000	82.920593	-62.6408
650.000000	81.559296	-68.5984
670.000000	80.196762	-73.0267
690.000000	78.868652	-76.2845
710.000000	77.589897	-78.5712
730.000000	76.373161	-79.9775
750.000000	75.203415	-80.7769
775.000000	73.806152	-80.9578
800.000000	72.484352	-80.3005
825.000000	71.230598	-79.0509
850.000000	70.025497	-77.1623
875.000000	68.893677	-74.7020
900.000000	67.821686	-72.8645
925.000000	66.371292	-69.7273
950.000000	64.670547	-63.4684
975.000000	64.040451	-40.5501
1000.000000	66.259895	-43.7857
1030.000000	64.995499	-46.8198
1060.000000	63.937035	-42.2321
1090.000000	63.111649	-36.0334
1120.000000	62.472717	-28.5833
1150.000000	62.100903	-20.4790
1180.000000	61.967548	-12.0424
1220.000000	62.157120	-1.5075
1250.000000	62.495377	5.7249
1280.000000	63.010849	11.7303
1320.000000	63.785820	18.5331
1360.000000	64.621078	23.4875
1400.000000	65.458664	27.4660
1450.000000	66.472153	31.0248
1500.000000	67.464157	33.3183
1550.000000	68.412933	34.6767
1600.000000	69.350845	35.2061
1650.000000	70.260620	34.8059
1700.000000	71.144188	33.5278
1750.000000	71.976151	31.2562
1800.000000	72.726990	27.9611
1850.000000	73.365402	23.7238
1900.000000	73.845406	18.6116
1950.000000	74.125519	12.9733
2000.000000	74.189903	7.2376
2060.000000	74.021912	0.7024
2120.000000	73.604240	-4.8732
2180.000000	73.044884	-9.2401
2240.000000	72.410919	-12.4238
2300.000000	71.754929	-14.5162
2360.000000	71.097443	-15.7542
2430.000000	70.366638	-16.3028
2500.000000	69.684525	-16.0639
2580.000000	68.977768	-15.0950
2650.000000	68.415062	-13.8678
2720.000000	67.895538	-12.2966
2800.000000	67.357986	-10.2249
2900.000000	66.740135	-7.2545
3000.000000	66.218613	-3.9384
3070.000000	65.879440	-1.4856
3150.000000	65.512390	1.5681
3250.000000	65.153198	6.0700
3350.000000	64.986969	10.7547
3450.000000	64.968353	14.3413
3550.000000	64.895714	17.1807
3650.000000	64.792267	20.2374
3750.000000	64.683640	23.3355
3870.000000	64.615097	27.4102
4000.000000	64.637054	31.6957
4120.000000	64.714066	35.3357
4250.000000	64.819870	39.1466
4370.000000	64.949959	42.9009
4500.000000	65.232521	46.3047
4620.000000	65.489746	49.6269
4750.000000	65.894897	52.5657
4870.000000	66.290161	54.8004
5000.000000	66.731377	56.6342
5150.000000	67.234039	58.6564
5300.000000	67.736115	60.5958
5450.000000	68.217628	63.1236
5600.000000	68.986824	67.9449
5800.000000	71.351006	73.4410
6000.000000	74.868721	66.6804
6150.000000	76.713951	48.7604
6300.000000	76.606354	28.8140
6500.000000	75.038551	14.0896
6700.000000	73.744492	8.8517
6900.000000	73.085411	7.1378
7100.000000	73.054710	5.9812
7300.000000	73.669502	2.6654
7500.000000	74.686432	-7.1448
7750.000000	74.731499	-33.1578
8000.000000	71.514587	-56.7278
8250.000000	67.270447	-63.6296
8500.000000	63.569599	-60.9775
8750.000000	60.496098	-53.8762
9000.000000	57.901642	-44.4741
9250.000000	55.679119	-33.4705
9500.000000	53.761646	-21.5370
9750.000000	52.093056	-9.0816
10000.000000	50.665817	4.1513
10300.000000	49.260487	19.7563
10600.000000	48.187908	34.4826
10900.000000	47.257885	47.7061
11200.000000	46.582214	60.7686
11500.000000	45.797195	71.8473
11800.000000	45.313465	80.9086
12200.000000	44.882637	88.7404
12500.000000	44.911255	89.9091
12800.000000	45.570351	84.3434
13200.000000	48.292740	67.1916
13600.000000	55.053001	40.6838
14000.000000	62.646069	-23.3619
14500.000000	58.758980	-95.1396
15000.000000	55.405598	-108.4860
15500.000000	54.072670	-113.6743
16000.000000	53.417007	-118.7898
16500.000000	53.185688	-126.1866
17000.000000	53.152508	-137.7338
17500.000000	53.354576	-154.3267
18000.000000	53.758904	-176.7460
18500.000000	54.499359	151.1826
19000.000000	55.672840	104.2219
19500.000000	56.988922	29.6151
