* Measurement data measured by REW V5.20.13
* Source: Headset (2- USB-C to 3.5mm Headphone Jack Adapter), MICROPHONE (Master Volume), L, volume: 0.250
* Format: 256k Log Swept Sine, 1 sweep at -5.0 dBFS with no timing reference
* Dated: Dec 22, 2022 2:04:32 PM
* REW Settings:
*  C-weighting compensation: Off
*  Target level: 75.0 dB
* Note: ; 
* Measurement: Devil L
* Smoothing: 1/12 octave
* Frequency Step: 1/24 octave
* Start Frequency: 20.000 Hz
*
* Freq(Hz)	SPL(dB)	Phase(degrees)
20.000000	85.220	-101.4684
20.600000	85.385	-103.4350
21.200001	85.525	-105.3419
21.799999	85.637	-107.1690
22.400000	85.729	-108.8651
23.000000	85.817	-110.4526
23.600000	85.901	-112.0158
24.299999	85.981	-113.8065
25.000000	86.049	-115.4672
25.799999	86.132	-117.2959
26.500000	86.190	-118.9844
27.200001	86.211	-120.6152
28.000000	86.215	-122.1579
29.000000	86.255	-123.8425
30.000000	86.306	-125.6448
30.700001	86.329	-126.9086
31.500000	86.348	-128.2907
32.500000	86.369	-129.9482
33.500000	86.385	-131.5161
34.500000	86.403	-132.9838
35.500000	86.420	-134.4118
36.500000	86.427	-135.7640
37.500000	86.434	-137.0108
38.700001	86.438	-138.4739
40.000000	86.426	-139.9189
41.200001	86.433	-141.1122
42.500000	86.454	-142.5356
43.700001	86.455	-143.8478
45.000000	86.455	-145.1721
46.200001	86.449	-146.3418
47.500000	86.431	-147.4780
48.700001	86.416	-148.3689
50.000000	86.409	-149.2740
51.500000	86.410	-150.2776
53.000000	86.417	-151.4042
54.500000	86.401	-152.5473
56.000000	86.384	-153.5676
58.000000	86.364	-154.9009
60.000000	86.328	-156.0156
61.500000	86.325	-156.7354
63.000000	86.330	-157.5442
65.000000	86.324	-158.6607
67.000000	86.298	-159.7217
69.000000	86.264	-160.5699
71.000000	86.239	-161.3241
73.000000	86.213	-162.0897
75.000000	86.188	-162.8537
77.500000	86.157	-163.8127
80.000000	86.125	-164.6737
82.500000	86.092	-165.4758
85.000000	86.053	-166.2521
87.500000	86.016	-167.0130
90.000000	85.981	-167.7189
92.500000	85.946	-168.3562
95.000000	85.909	-168.9566
97.500000	85.874	-169.5506
100.000000	85.839	-170.1259
103.000000	85.800	-170.7612
106.000000	85.760	-171.3830
109.000000	85.718	-171.9625
112.000000	85.680	-172.4827
115.000000	85.644	-172.9783
118.000000	85.606	-173.4808
122.000000	85.556	-174.0965
125.000000	85.523	-174.5143
128.000000	85.487	-174.9142
132.000000	85.436	-175.4144
136.000000	85.387	-175.8661
140.000000	85.335	-176.2647
145.000000	85.273	-176.7485
150.000000	85.210	-177.2039
155.000000	85.147	-177.5818
160.000000	85.081	-177.9364
165.000000	85.013	-178.2430
170.000000	84.943	-178.5163
175.000000	84.882	-178.7686
180.000000	84.823	-179.0162
185.000000	84.759	-179.1802
190.000000	84.696	-179.2935
195.000000	84.634	-179.4091
200.000000	84.573	-179.5188
206.000000	84.500	-179.6100
212.000000	84.426	-179.6523
218.000000	84.354	-179.6454
224.000000	84.288	-179.6701
230.000000	84.223	-179.6977
236.000000	84.157	-179.6650
243.000000	84.082	-179.5824
250.000000	84.013	-179.4624
258.000000	83.935	-179.2960
265.000000	83.863	-179.1469
272.000000	83.794	-178.9796
280.000000	83.722	-178.7559
290.000000	83.635	-178.4525
300.000000	83.552	-178.0971
307.000000	83.492	-177.8336
315.000000	83.428	-177.4910
325.000000	83.352	-177.0706
335.000000	83.277	-176.6376
345.000000	83.209	-176.1707
355.000000	83.145	-175.6812
365.000000	83.082	-175.1760
375.000000	83.024	-174.6766
387.000000	82.959	-174.0539
400.000000	82.890	-173.3270
412.000000	82.830	-172.6460
425.000000	82.771	-171.9061
437.000000	82.721	-171.2013
450.000000	82.672	-170.4159
462.000000	82.629	-169.6863
475.000000	82.587	-168.8863
487.000000	82.551	-168.1398
500.000000	82.516	-167.3199
515.000000	82.479	-166.3654
530.000000	82.446	-165.3984
545.000000	82.417	-164.4210
560.000000	82.392	-163.4391
580.000000	82.367	-162.1136
600.000000	82.350	-160.7780
615.000000	82.341	-159.7677
630.000000	82.335	-158.7418
650.000000	82.333	-157.3648
670.000000	82.339	-155.9761
690.000000	82.351	-154.5770
710.000000	82.369	-153.1742
730.000000	82.394	-151.7621
750.000000	82.427	-150.3391
775.000000	82.475	-148.5412
800.000000	82.531	-146.7013
825.000000	82.596	-144.7967
850.000000	82.682	-142.7783
875.000000	82.810	-140.7657
900.000000	82.957	-138.9393
925.000000	83.089	-137.1476
950.000000	83.223	-135.1370
975.000000	83.411	-132.8181
1000.000000	83.712	-130.5090
1030.000000	84.173	-128.6290
1060.000000	84.587	-127.7792
1090.000000	84.916	-127.2198
1120.000000	85.205	-126.6351
1150.000000	85.483	-126.0502
1180.000000	85.755	-125.5469
1220.000000	86.100	-125.0789
1250.000000	86.328	-124.8692
1280.000000	86.519	-124.6611
1320.000000	86.729	-124.0931
1360.000000	86.953	-123.0728
1400.000000	87.236	-121.8770
1450.000000	87.655	-120.5505
1500.000000	88.110	-119.5210
1550.000000	88.586	-118.7625
1600.000000	89.078	-118.2475
1650.000000	89.587	-117.9777
1700.000000	90.113	-117.9820
1750.000000	90.653	-118.2977
1800.000000	91.204	-118.9702
1850.000000	91.759	-120.0508
1900.000000	92.309	-121.5849
1950.000000	92.841	-123.6120
2000.000000	93.338	-126.1507
2060.000000	93.865	-129.8506
2120.000000	94.284	-134.1660
2180.000000	94.571	-138.9088
2240.000000	94.714	-143.8199
2300.000000	94.713	-148.6225
2360.000000	94.588	-153.0765
2430.000000	94.318	-157.6254
2500.000000	93.960	-161.3896
2580.000000	93.492	-164.7759
2650.000000	93.060	-167.0580
2720.000000	92.621	-168.8342
2800.000000	92.110	-170.3572
2900.000000	91.447	-171.5526
3000.000000	90.750	-171.8341
3070.000000	90.251	-171.3563
3150.000000	89.697	-170.0453
3250.000000	89.081	-167.3128
3350.000000	88.609	-163.6537
3450.000000	88.310	-159.4812
3550.000000	88.181	-155.1758
3650.000000	88.200	-151.0020
3750.000000	88.343	-147.1224
3870.000000	88.648	-142.9932
4000.000000	89.118	-139.2900
4120.000000	89.663	-136.7238
4250.000000	90.351	-135.1107
4370.000000	91.044	-134.9867
4500.000000	91.782	-136.7012
4620.000000	92.346	-140.1919
4750.000000	92.688	-145.7605
4870.000000	92.660	-151.7023
5000.000000	92.252	-157.6671
5150.000000	91.430	-162.5767
5300.000000	90.456	-165.0047
5450.000000	89.519	-165.5035
5600.000000	88.703	-164.7935
5800.000000	87.906	-162.4900
6000.000000	87.738	-161.4014
6150.000000	87.717	-163.9887
6300.000000	87.458	-168.8549
6500.000000	86.514	-176.4492
6700.000000	84.878	178.8150
6900.000000	82.978	179.5264
7100.000000	81.373	-175.1684
7300.000000	80.387	-167.4293
7500.000000	80.054	-158.9361
7750.000000	80.452	-148.7005
8000.000000	81.595	-140.1814
8250.000000	83.254	-134.8578
8500.000000	85.032	-134.3264
8750.000000	86.390	-139.0376
9000.000000	86.924	-146.4129
9250.000000	86.667	-152.0569
9500.000000	86.013	-153.7310
9750.000000	85.373	-152.1603
10000.000000	84.977	-149.2720
10300.000000	84.890	-147.0857
10600.000000	85.017	-150.0461
10900.000000	84.760	-161.5579
11200.000000	83.383	179.1547
11500.000000	80.678	156.7589
11800.000000	77.402	132.4811
12200.000000	75.115	96.5519
12500.000000	75.409	72.2785
12800.000000	75.667	56.0370
13200.000000	75.295	49.9894
13600.000000	74.880	56.5168
14000.000000	74.917	67.8469
14500.000000	75.610	81.5834
15000.000000	76.420	89.2571
15500.000000	76.461	92.7558
16000.000000	76.145	96.9253
16500.000000	75.988	99.5917
17000.000000	75.960	98.6627
17500.000000	76.083	92.7460
18000.000000	76.271	79.9629
18500.000000	76.431	58.4282
19000.000000	76.364	25.9592
19500.000000	75.768	-15.1746
