* Measurement data measured by REW V5.20 Beta 31
* Source: IEC-711 (3- USB Sound Device        ), MICROPHONE (Master Volume), R, volume: 0.530
* Format: 1M Log Swept Sine, 1 sweep at 0.0 dBFS With no timing reference
* Dated: Feb 3, 2020 9:59:15 PM
* REW Settings:
*  C-weighting compensation: Off
*  Target level: 75.0 dB
* Note: ; 
* Measurement: DK3001 Pro R
* Smoothing: 1/48 octave
* Frequency Step: 1/24 octave
* Start Frequency: 20.000 Hz
*
* Freq(Hz)	SPL(dB)	Phase(degrees)
20.000000	83.690010	-122.3822
20.600000	83.792191	-122.7425
21.200001	83.870773	-122.9370
21.799999	83.934914	-123.2071
22.400000	83.975845	-123.6007
23.000000	83.997444	-124.0235
23.600000	84.018257	-124.4107
24.299999	84.061852	-124.8620
25.000000	84.121361	-125.3947
25.799999	84.183212	-126.0100
26.500000	84.234215	-126.3809
27.200001	84.297462	-126.6286
28.000000	84.368454	-126.9122
29.000000	84.423088	-127.1710
30.000000	84.457947	-127.2864
30.700001	84.474022	-127.3433
31.500000	84.493088	-127.4098
32.500000	84.512405	-127.6146
33.500000	84.519218	-127.7595
34.500000	84.547287	-127.8660
35.500000	84.567436	-127.9746
36.500000	84.592957	-127.9123
37.500000	84.622261	-127.8608
38.700001	84.640388	-127.7668
40.000000	84.635620	-127.6125
41.200001	84.641701	-127.4132
42.500000	84.637077	-127.2844
43.700001	84.646980	-127.0904
45.000000	84.649742	-126.8850
46.200001	84.658104	-126.5978
47.500000	84.652969	-126.2572
48.700001	84.649139	-125.8539
50.000000	84.648193	-125.4891
51.500000	84.633743	-125.0678
53.000000	84.644821	-124.6226
54.500000	84.636040	-124.1739
56.000000	84.665176	-123.5981
58.000000	84.613541	-122.9406
60.000000	84.635010	-121.7451
61.500000	84.596626	-121.5347
63.000000	84.567902	-120.7945
65.000000	84.543076	-120.0663
67.000000	84.529305	-119.3001
69.000000	84.520569	-118.4589
71.000000	84.495529	-117.5944
73.000000	84.475029	-116.6767
75.000000	84.479073	-115.8573
77.500000	84.447479	-114.7480
80.000000	84.421280	-113.4934
82.500000	84.400757	-112.3833
85.000000	84.365295	-111.4190
87.500000	84.342331	-110.2968
90.000000	84.294655	-109.2747
92.500000	84.278664	-108.0154
95.000000	84.269043	-106.6650
97.500000	84.266747	-105.3377
100.000000	84.227631	-104.2333
103.000000	84.161987	-103.0190
106.000000	84.129478	-101.6286
109.000000	84.082092	-100.1764
112.000000	84.045502	-98.7598
115.000000	84.001053	-97.3210
118.000000	83.934448	-95.8049
122.000000	83.880699	-93.7432
125.000000	83.825363	-92.3948
128.000000	83.775299	-90.9296
132.000000	83.707260	-88.9253
136.000000	83.629021	-86.8765
140.000000	83.551773	-84.8216
145.000000	83.474426	-82.2752
150.000000	83.383415	-79.6430
155.000000	83.282806	-77.0234
160.000000	83.210464	-74.4454
165.000000	83.113853	-71.7682
170.000000	83.035805	-69.1336
175.000000	82.948830	-66.4448
180.000000	82.870964	-63.7234
185.000000	82.791451	-61.1724
190.000000	82.708527	-58.5041
195.000000	82.634216	-55.7865
200.000000	82.549393	-53.0679
206.000000	82.467278	-49.8534
212.000000	82.384941	-46.6093
218.000000	82.291321	-43.3837
224.000000	82.210571	-40.1914
230.000000	82.133896	-37.0474
236.000000	82.060196	-33.8614
243.000000	81.972099	-29.9244
250.000000	81.904625	-26.4284
258.000000	81.800507	-22.0861
265.000000	81.710999	-18.4268
272.000000	81.625992	-14.7625
280.000000	81.554306	-10.5178
290.000000	81.439857	-5.3832
300.000000	81.308960	-0.1113
307.000000	81.248978	3.4464
315.000000	81.162170	7.6149
325.000000	81.077881	12.9832
335.000000	80.998032	18.5807
345.000000	80.978828	23.7126
355.000000	80.959900	28.5583
365.000000	80.899368	33.2800
375.000000	80.836899	38.1125
387.000000	80.741020	43.8772
400.000000	80.664711	50.2069
412.000000	80.588562	56.0504
425.000000	80.504463	62.2358
437.000000	80.430573	67.8897
450.000000	80.379288	74.1258
462.000000	80.315315	79.6378
475.000000	80.244934	85.7389
487.000000	80.204865	91.3245
500.000000	80.143402	97.2812
515.000000	80.060356	104.1584
530.000000	80.009666	110.9125
545.000000	79.956398	117.6887
560.000000	79.897720	124.3318
580.000000	79.842796	133.1888
600.000000	79.792480	141.8961
615.000000	79.742859	148.4640
630.000000	79.717644	154.8312
650.000000	79.668579	163.4102
670.000000	79.625717	171.8548
690.000000	79.576920	-179.6555
710.000000	79.565880	-171.2764
730.000000	79.534851	-163.0526
750.000000	79.512917	-154.7968
775.000000	79.493904	-144.6431
800.000000	79.498619	-134.5504
825.000000	79.503433	-124.4841
850.000000	79.512558	-114.5684
875.000000	79.544952	-104.7361
900.000000	79.587273	-94.9411
925.000000	79.646927	-85.2739
950.000000	79.730591	-75.6286
975.000000	79.831718	-66.2121
1000.000000	79.990707	-56.9441
1030.000000	80.124016	-45.9054
1060.000000	80.314285	-35.2991
1090.000000	80.497169	-25.0792
1120.000000	80.635887	-14.8732
1150.000000	80.925591	-4.2109
1180.000000	81.222282	4.8527
1220.000000	81.462029	16.9438
1250.000000	81.673500	26.1943
1280.000000	81.901131	35.0963
1320.000000	82.208847	46.4601
1360.000000	82.494064	57.3751
1400.000000	82.757446	67.9146
1450.000000	83.053261	80.8432
1500.000000	83.326599	93.2532
1550.000000	83.567001	105.3529
1600.000000	83.773346	117.1364
1650.000000	83.972008	128.5391
1700.000000	84.130310	139.6137
1750.000000	84.252464	150.4664
1800.000000	84.346405	161.0966
1850.000000	84.401917	171.4894
1900.000000	84.425415	-178.2073
1950.000000	84.417336	-168.0460
2000.000000	84.399368	-157.8097
2060.000000	84.312569	-145.6836
2120.000000	84.215950	-133.5076
2180.000000	84.097275	-121.1341
2240.000000	83.988434	-108.6048
2300.000000	83.898102	-96.0137
2360.000000	83.843475	-83.2056
2430.000000	83.854065	-68.1802
2500.000000	83.955780	-53.2051
2580.000000	84.209244	-36.2896
2650.000000	84.585159	-22.0314
2720.000000	85.093491	-8.5532
2800.000000	85.818726	5.4464
2900.000000	86.881958	19.9087
3000.000000	87.846840	29.5447
3070.000000	88.175095	33.7687
3150.000000	87.993477	37.8130
3250.000000	87.117599	45.0983
3350.000000	85.995476	56.2325
3450.000000	84.973633	70.1712
3550.000000	84.170197	85.5913
3650.000000	83.600342	101.5548
3750.000000	83.208633	117.4860
3870.000000	82.946945	136.1411
4000.000000	82.829659	155.6749
4120.000000	82.874588	172.9655
4250.000000	83.020584	-169.2589
4370.000000	83.254189	-153.7096
4500.000000	83.591644	-137.7666
4620.000000	83.991539	-123.9229
4750.000000	84.503281	-110.1182
4870.000000	85.045937	-98.5142
5000.000000	85.677574	-87.3530
5150.000000	86.443062	-76.6725
5300.000000	87.143600	-68.5210
5450.000000	87.660995	-62.8586
5600.000000	87.894096	-59.1547
5800.000000	87.633919	-56.7781
6000.000000	86.323311	-55.0609
6150.000000	84.671356	-50.1305
6300.000000	82.962875	-40.2057
6500.000000	81.300682	-21.6654
6700.000000	80.590332	-1.5461
6900.000000	80.683670	17.4724
7100.000000	81.353302	33.5020
7300.000000	82.556961	46.8053
7500.000000	84.308708	55.6281
7750.000000	87.045723	55.8217
8000.000000	88.704468	38.9531
8250.000000	87.439835	16.5665
8500.000000	84.451981	8.2461
8750.000000	81.863533	8.5017
9000.000000	79.842941	11.5039
9250.000000	78.244339	14.8854
9500.000000	76.921356	18.0442
9750.000000	75.823639	20.6996
10000.000000	74.894257	22.3940
10300.000000	73.987671	23.2715
10600.000000	73.282700	22.2772
10900.000000	72.754471	18.7728
11200.000000	72.231445	10.8386
11500.000000	70.979767	-1.1001
11800.000000	68.801048	-9.6888
12200.000000	65.776634	-15.0555
12500.000000	63.807602	-12.7997
12800.000000	62.747234	-6.9731
13200.000000	63.405849	-0.4728
13600.000000	66.366180	-8.9803
14000.000000	68.281662	-37.1147
14500.000000	69.224449	-78.1448
15000.000000	68.581253	-132.9309
15500.000000	63.707420	-177.4178
16000.000000	61.946320	164.7544
16500.000000	60.983749	117.8152
17000.000000	56.905792	80.1409
17500.000000	53.488449	62.1901
18000.000000	56.529190	46.3282
18500.000000	58.887005	-30.7877
19000.000000	54.035984	-117.1896
19500.000000	44.101318	120.4563
