* Measurement data measured by REW V5.20.13
* Source: Headset (2- USB-C to 3.5mm Headphone Jack Adapter), no input selected, R, volume: no control. Timing signal peak level -27.6 dBFS, measurement signal peak level -26.1 dBFS
* Format: 512k Log Swept Sine, 1 sweep at -6.0 dBFS using an acoustic timing reference
* Dated: May 27, 2023 10:27:38 PM
* REW Settings:
*  C-weighting compensation: Off
*  Target level: 75.0 dB
* Note: ; Delay -0.0814 ms (-28 mm, -1.1 in) using estimated IR delay relative to Acoustic reference played from  L with no timing offset
* Measurement: Dolce R
* Smoothing: 1/48 octave
* Frequency Step: 1/24 octave
* Start Frequency: 20.600 Hz
*
* Freq(Hz)	SPL(dB)	Phase(degrees)
20.600000	85.559	57.9351
21.200001	85.693	56.5386
21.799999	85.751	55.0660
22.400000	85.800	53.5442
23.000000	85.867	52.1817
23.600000	85.908	50.9867
24.299999	85.900	49.5295
25.000000	85.912	47.9918
25.799999	85.981	46.4832
26.500000	86.000	45.2952
27.200001	85.978	44.0459
28.000000	85.985	42.6463
29.000000	86.009	40.9625
30.000000	85.997	39.3002
30.700001	85.998	38.2594
31.500000	85.997	37.1761
32.500000	85.996	35.8209
33.500000	85.998	34.4399
34.500000	85.993	33.1644
35.500000	85.987	31.9278
36.500000	85.967	30.7559
37.500000	85.968	29.6004
38.700001	85.957	28.3293
40.000000	85.934	26.9132
41.200001	85.921	25.8671
42.500000	85.895	24.6109
43.700001	85.888	23.5235
45.000000	85.893	22.4290
46.200001	85.790	21.6335
47.500000	85.807	20.5535
48.700001	85.813	19.4908
50.000000	85.770	18.5973
51.500000	85.761	17.4022
53.000000	85.723	16.4977
54.500000	85.687	15.3667
56.000000	85.661	14.6781
58.000000	85.619	13.3937
60.000000	85.649	12.0272
61.500000	85.545	11.3912
63.000000	85.533	10.5645
65.000000	85.483	9.6457
67.000000	85.420	8.7807
69.000000	85.393	7.8331
71.000000	85.345	7.0060
73.000000	85.294	6.1970
75.000000	85.247	5.3287
77.500000	85.181	4.4267
80.000000	85.131	3.5236
82.500000	85.056	2.6683
85.000000	84.989	1.8595
87.500000	84.917	1.0381
90.000000	84.859	0.3741
92.500000	84.793	-0.3077
95.000000	84.733	-0.9732
97.500000	84.665	-1.5980
100.000000	84.601	-2.2159
103.000000	84.533	-2.8995
106.000000	84.452	-3.5488
109.000000	84.379	-4.1776
112.000000	84.310	-4.7311
115.000000	84.237	-5.2561
118.000000	84.164	-5.7772
122.000000	84.068	-6.4394
125.000000	83.997	-6.8548
128.000000	83.925	-7.2709
132.000000	83.831	-7.8235
136.000000	83.732	-8.2987
140.000000	83.639	-8.7643
145.000000	83.512	-9.2356
150.000000	83.406	-9.6551
155.000000	83.283	-10.0828
160.000000	83.164	-10.4193
165.000000	83.045	-10.7403
170.000000	82.934	-10.9757
175.000000	82.814	-11.2019
180.000000	82.690	-11.4085
185.000000	82.595	-11.5579
190.000000	82.480	-11.6828
195.000000	82.374	-11.7692
200.000000	82.261	-11.8257
206.000000	82.139	-11.8873
212.000000	82.014	-11.9011
218.000000	81.889	-11.8791
224.000000	81.766	-11.8190
230.000000	81.650	-11.7300
236.000000	81.535	-11.6120
243.000000	81.401	-11.4463
250.000000	81.272	-11.2281
258.000000	81.127	-10.9737
265.000000	81.004	-10.7131
272.000000	80.884	-10.4276
280.000000	80.751	-10.0685
290.000000	80.587	-9.5835
300.000000	80.428	-9.1730
307.000000	80.326	-8.6632
315.000000	80.206	-8.1928
325.000000	80.061	-7.5904
335.000000	79.924	-6.9271
345.000000	79.790	-6.2561
355.000000	79.661	-5.5527
365.000000	79.538	-4.8380
375.000000	79.418	-4.0874
387.000000	79.281	-3.1659
400.000000	79.138	-2.1478
412.000000	79.013	-1.2005
425.000000	78.878	-0.1117
437.000000	78.767	0.8748
450.000000	78.647	1.9807
462.000000	78.543	3.0251
475.000000	78.433	4.1655
487.000000	78.338	5.2300
500.000000	78.240	6.4115
515.000000	78.132	7.7874
530.000000	78.028	9.2004
545.000000	77.931	10.6119
560.000000	77.839	12.0558
580.000000	77.726	13.9880
600.000000	77.627	15.9982
615.000000	77.558	17.5196
630.000000	77.497	19.0350
650.000000	77.424	21.1149
670.000000	77.361	23.2062
690.000000	77.313	25.3256
710.000000	77.275	27.4801
730.000000	77.250	29.6510
750.000000	77.239	31.8599
775.000000	77.246	34.6292
800.000000	77.275	37.4152
825.000000	77.335	40.1757
850.000000	77.418	42.8957
875.000000	77.530	45.5398
900.000000	77.665	48.1021
925.000000	77.816	50.5252
950.000000	77.982	52.8244
975.000000	78.165	55.0169
1000.000000	78.357	57.0650
1030.000000	78.599	59.3467
1060.000000	78.845	61.4360
1090.000000	79.093	63.3193
1120.000000	79.340	65.0379
1150.000000	79.578	66.5906
1180.000000	79.807	68.0087
1220.000000	80.093	69.7306
1250.000000	80.294	70.9284
1280.000000	80.480	72.0805
1320.000000	80.710	73.5539
1360.000000	80.924	75.0106
1400.000000	81.125	76.4650
1450.000000	81.363	78.2928
1500.000000	81.592	80.1520
1550.000000	81.817	82.0222
1600.000000	82.043	83.8981
1650.000000	82.270	85.7693
1700.000000	82.502	87.6388
1750.000000	82.740	89.4735
1800.000000	82.983	91.2756
1850.000000	83.232	93.0301
1900.000000	83.487	94.7225
1950.000000	83.744	96.3497
2000.000000	84.006	97.9051
2060.000000	84.325	99.6878
2120.000000	84.647	101.3441
2180.000000	84.971	102.8806
2240.000000	85.293	104.3082
2300.000000	85.615	105.6193
2360.000000	85.932	106.8221
2430.000000	86.297	108.0880
2500.000000	86.658	109.2318
2580.000000	87.064	110.3783
2650.000000	87.413	111.2533
2720.000000	87.758	111.9855
2800.000000	88.148	112.6387
2900.000000	88.624	113.1360
3000.000000	89.076	113.2657
3070.000000	89.373	113.1366
3150.000000	89.686	112.7950
3250.000000	90.036	112.0976
3350.000000	90.338	111.1341
3450.000000	90.587	109.9067
3550.000000	90.776	108.4061
3650.000000	90.885	106.6466
3750.000000	90.886	104.7432
3870.000000	90.704	102.8641
4000.000000	90.469	102.6807
4120.000000	90.548	102.1294
4250.000000	90.455	99.1250
4370.000000	90.040	96.4243
4500.000000	89.381	94.5920
4620.000000	88.668	94.0205
4750.000000	87.846	94.5869
4870.000000	87.085	96.1446
5000.000000	86.299	98.8045
5150.000000	85.485	102.8413
5300.000000	84.783	107.4884
5450.000000	84.175	112.4277
5600.000000	83.628	117.5801
5800.000000	82.982	124.8826
6000.000000	82.446	132.6641
6150.000000	82.126	138.6880
6300.000000	81.871	144.7680
6500.000000	81.605	152.8812
6700.000000	81.383	161.2947
6900.000000	81.272	170.5780
7100.000000	81.427	-179.5865
7300.000000	81.885	-170.2521
7500.000000	82.568	-162.0096
7750.000000	83.708	-153.6009
8000.000000	85.119	-148.2567
8250.000000	86.633	-147.4389
8500.000000	87.816	-152.1361
8750.000000	88.083	-160.2483
9000.000000	87.373	-166.4788
9250.000000	86.248	-167.9365
9500.000000	85.220	-165.3821
9750.000000	84.509	-160.5241
10000.000000	84.184	-154.6427
10300.000000	84.360	-147.7554
10600.000000	85.210	-142.6332
10900.000000	86.744	-142.7438
11200.000000	88.554	-152.6470
11500.000000	88.894	-174.8439
11800.000000	86.875	166.6840
12200.000000	83.308	158.5124
12500.000000	81.297	159.4717
12800.000000	79.835	161.1575
13200.000000	78.501	163.7061
13600.000000	77.746	163.9131
14000.000000	77.221	159.8500
14500.000000	76.249	148.1518
15000.000000	74.226	133.1556
15500.000000	71.625	119.9550
16000.000000	69.141	107.5762
16500.000000	67.198	92.8335
17000.000000	65.955	72.8344
17500.000000	65.467	45.4044
18000.000000	65.603	8.7013
18500.000000	65.988	-38.2297
19000.000000	66.266	-97.3294
19500.000000	65.557	-173.4901
