* Measurement data measured by REW V5.20.13
* Source: Headset (2- USB-C to 3.5mm Headphone Jack Adapter), MICROPHONE (Master Volume), R, volume: 0.500. Timing signal peak level -49.7 dBFS, measurement signal peak level -18.7 dBFS
* Format: 512k Log Swept Sine, 1 sweep at -3.0 dBFS using an acoustic timing reference
* Dated: Aug 6, 2023 2:06:48 PM
* REW Settings:
*  C-weighting compensation: Off
*  Target level: 75.0 dB
* Note: ; Delay -0.0893 ms (-31 mm, -1.21 in) using estimated IR delay relative to Acoustic reference played from  L with no timing offset Clock adjustment: 0.4 ppm
* Measurement: DZ4 R
* Smoothing: 1/48 octave
* Frequency Step: 1/24 octave
* Start Frequency: 20.600 Hz
*
* Freq(Hz)	SPL(dB)	Phase(degrees)
20.600000	98.417	-150.8181
21.200001	98.429	-152.4152
21.799999	98.406	-153.9367
22.400000	98.343	-155.3900
23.000000	98.284	-156.8310
23.600000	98.260	-158.3203
24.299999	98.217	-159.9717
25.000000	98.108	-161.2330
25.799999	98.002	-162.4069
26.500000	97.953	-163.7790
27.200001	97.868	-165.3677
28.000000	97.733	-166.7922
29.000000	97.603	-168.1687
30.000000	97.479	-169.7185
30.700001	97.394	-170.7503
31.500000	97.301	-171.8998
32.500000	97.174	-173.2868
33.500000	97.050	-174.5325
34.500000	96.916	-175.7422
35.500000	96.798	-176.8140
36.500000	96.676	-177.8869
37.500000	96.543	-178.8237
38.700001	96.405	-179.9488
40.000000	96.243	178.8688
41.200001	96.128	177.9008
42.500000	95.959	176.8412
43.700001	95.845	176.1190
45.000000	95.715	175.1007
46.200001	95.567	174.3723
47.500000	95.425	173.6814
48.700001	95.316	173.0588
50.000000	95.201	172.4100
51.500000	95.044	171.6631
53.000000	94.898	171.0011
54.500000	94.754	170.4008
56.000000	94.615	169.8192
58.000000	94.448	169.1453
60.000000	94.246	168.6624
61.500000	94.149	168.1946
63.000000	94.026	167.8341
65.000000	93.873	167.3984
67.000000	93.721	166.9387
69.000000	93.570	166.6110
71.000000	93.439	166.3322
73.000000	93.296	166.0764
75.000000	93.160	165.8856
77.500000	92.976	165.6463
80.000000	92.836	165.4944
82.500000	92.684	165.3691
85.000000	92.538	165.2524
87.500000	92.399	165.1802
90.000000	92.264	165.1934
92.500000	92.132	165.2111
95.000000	92.009	165.2578
97.500000	91.889	165.3036
100.000000	91.774	165.4014
103.000000	91.645	165.5145
106.000000	91.523	165.6499
109.000000	91.411	165.8332
112.000000	91.296	166.0597
115.000000	91.198	166.2559
118.000000	91.095	166.5071
122.000000	90.967	166.8522
125.000000	90.875	167.0862
128.000000	90.793	167.3969
132.000000	90.683	167.7963
136.000000	90.580	168.2126
140.000000	90.483	168.6307
145.000000	90.370	169.1790
150.000000	90.269	169.7477
155.000000	90.164	170.2675
160.000000	90.072	170.9016
165.000000	89.994	171.4649
170.000000	89.913	172.0858
175.000000	89.841	172.6530
180.000000	89.767	173.2840
185.000000	89.711	173.8592
190.000000	89.656	174.4384
195.000000	89.604	175.0317
200.000000	89.555	175.6252
206.000000	89.503	176.3036
212.000000	89.458	176.9884
218.000000	89.413	177.6592
224.000000	89.374	178.3147
230.000000	89.344	178.9435
236.000000	89.313	179.5850
243.000000	89.281	-179.7072
250.000000	89.255	-179.0150
258.000000	89.226	-178.2498
265.000000	89.207	-177.6108
272.000000	89.190	-176.9660
280.000000	89.173	-176.2705
290.000000	89.153	-175.4460
300.000000	89.138	-174.5918
307.000000	89.125	-174.1034
315.000000	89.115	-173.5143
325.000000	89.100	-172.7780
335.000000	89.084	-172.0671
345.000000	89.069	-171.3837
355.000000	89.051	-170.7188
365.000000	89.033	-170.0501
375.000000	89.015	-169.3862
387.000000	88.992	-168.6138
400.000000	88.964	-167.7639
412.000000	88.936	-166.9771
425.000000	88.908	-166.1265
437.000000	88.879	-165.3230
450.000000	88.847	-164.4431
462.000000	88.819	-163.6232
475.000000	88.790	-162.7192
487.000000	88.761	-161.8666
500.000000	88.732	-160.9340
515.000000	88.701	-159.8409
530.000000	88.673	-158.7287
545.000000	88.645	-157.5836
560.000000	88.621	-156.4415
580.000000	88.594	-154.8805
600.000000	88.572	-153.2861
615.000000	88.559	-152.0663
630.000000	88.550	-150.8393
650.000000	88.546	-149.1885
670.000000	88.547	-147.4953
690.000000	88.555	-145.7903
710.000000	88.574	-144.0653
730.000000	88.600	-142.3193
750.000000	88.636	-140.5601
775.000000	88.694	-138.3489
800.000000	88.772	-136.1278
825.000000	88.863	-133.9100
850.000000	88.975	-131.7084
875.000000	89.105	-129.5362
900.000000	89.255	-127.4141
925.000000	89.423	-125.3608
950.000000	89.608	-123.3928
975.000000	89.811	-121.5370
1000.000000	90.026	-119.7978
1030.000000	90.297	-117.8905
1060.000000	90.578	-116.1814
1090.000000	90.862	-114.6832
1120.000000	91.142	-113.3842
1150.000000	91.415	-112.2546
1180.000000	91.680	-111.2928
1220.000000	92.010	-110.1954
1250.000000	92.241	-109.4896
1280.000000	92.457	-108.8529
1320.000000	92.725	-108.0816
1360.000000	92.971	-107.3768
1400.000000	93.196	-106.7038
1450.000000	93.459	-105.9144
1500.000000	93.697	-105.1537
1550.000000	93.914	-104.4161
1600.000000	94.109	-103.6768
1650.000000	94.286	-102.9155
1700.000000	94.443	-102.0943
1750.000000	94.587	-101.1811
1800.000000	94.726	-100.1463
1850.000000	94.868	-98.9837
1900.000000	95.024	-97.7177
1950.000000	95.202	-96.3905
2000.000000	95.408	-95.0746
2060.000000	95.691	-93.6195
2120.000000	96.006	-92.4059
2180.000000	96.340	-91.5217
2240.000000	96.676	-91.0054
2300.000000	96.997	-90.8476
2360.000000	97.287	-91.0141
2430.000000	97.571	-91.5279
2500.000000	97.790	-92.2591
2580.000000	97.954	-93.1880
2650.000000	98.026	-93.9528
2720.000000	98.044	-94.5640
2800.000000	98.010	-94.9948
2900.000000	97.916	-95.0722
3000.000000	97.796	-94.6438
3070.000000	97.711	-94.0800
3150.000000	97.620	-93.2137
3250.000000	97.527	-91.8789
3350.000000	97.465	-90.3636
3450.000000	97.437	-88.7679
3550.000000	97.443	-87.1878
3650.000000	97.482	-85.7087
3750.000000	97.550	-84.4296
3870.000000	97.656	-83.2887
4000.000000	97.776	-82.7360
4120.000000	97.843	-83.0377
4250.000000	97.776	-84.2628
4370.000000	97.480	-85.7617
4500.000000	96.874	-86.4485
4620.000000	96.217	-85.1991
4750.000000	95.643	-82.3902
4870.000000	95.266	-79.7029
5000.000000	94.901	-77.2274
5150.000000	94.434	-74.6535
5300.000000	93.894	-71.9489
5450.000000	93.290	-68.7303
5600.000000	92.660	-64.8493
5800.000000	91.843	-58.6565
6000.000000	91.112	-51.4818
6150.000000	90.640	-45.6174
6300.000000	90.245	-39.4560
6500.000000	89.850	-30.9343
6700.000000	89.618	-22.2808
6900.000000	89.568	-13.7241
7100.000000	89.713	-5.5263
7300.000000	90.069	1.9313
7500.000000	90.623	8.2119
7750.000000	91.589	13.6370
8000.000000	92.734	14.6709
8250.000000	93.633	9.7883
8500.000000	93.592	0.5259
8750.000000	92.380	-7.1361
9000.000000	90.586	-9.1064
9250.000000	88.813	-5.9286
9500.000000	87.316	0.6362
9750.000000	86.152	8.9331
10000.000000	85.287	18.5415
10300.000000	84.663	30.6955
10600.000000	84.432	42.9386
10900.000000	84.564	54.7293
11200.000000	85.050	65.6097
11500.000000	85.915	74.9751
11800.000000	87.214	81.8028
12200.000000	89.654	83.1412
12500.000000	91.509	72.8661
12800.000000	91.841	51.9434
13200.000000	89.074	29.1439
13600.000000	85.578	21.4627
14000.000000	82.852	19.6233
14500.000000	80.615	17.3374
15000.000000	79.602	10.7680
15500.000000	79.606	-2.5859
16000.000000	79.908	-23.8654
16500.000000	79.605	-48.7989
17000.000000	78.851	-72.2552
17500.000000	77.903	-95.4492
18000.000000	77.088	-119.3786
18500.000000	76.760	-149.4285
19000.000000	76.609	166.2328
19500.000000	75.175	98.8472
