* Measurement data measured by REW V5.19
* Source: Microphone (2- USB Sound Device        ), no input selected, R, volume: no control
* Format: 1M Log Swept Sine, 1 sweep at -20.0 dBFS  With no timing reference
* Dated: May 24, 2019 11:34:10 AM
* REW Settings:
*  C-weighting compensation: Off
*  Target level: 75.0 dB
* Note: ; 
* Measurement: Final Audio E1000
* Smoothing: 1/48 octave
* Frequency Step: 1/24 octave
* Start Frequency: 20.000 Hz
*
* Freq(Hz)	SPL(dB)	Phase(degrees)
20.000000	74.407707	-120.7398
20.600000	74.622803	-121.5879
21.200001	74.787834	-122.1870
21.799999	74.969719	-122.7583
22.400000	75.159691	-123.6931
23.000000	75.294891	-125.0161
23.600000	75.355240	-126.1960
24.299999	75.434151	-126.9191
25.000000	75.620255	-127.4992
25.799999	75.875267	-128.7694
26.500000	76.041359	-130.0796
27.200001	76.168106	-131.1773
28.000000	76.299332	-132.1815
29.000000	76.454697	-133.2154
30.000000	76.610870	-134.1295
30.700001	76.732307	-134.8283
31.500000	76.857773	-135.8914
32.500000	76.940872	-137.1100
33.500000	77.074722	-137.9032
34.500000	77.227127	-139.1951
35.500000	77.312210	-140.2743
36.500000	77.421448	-141.1570
37.500000	77.524231	-141.9362
38.700001	77.680420	-143.1036
40.000000	77.756187	-144.0187
41.200001	77.980499	-145.1172
42.500000	77.978294	-146.8239
43.700001	78.069595	-146.8769
45.000000	78.235229	-147.9363
46.200001	78.345703	-148.7652
47.500000	78.431915	-150.1236
48.700001	78.454712	-150.9098
50.000000	78.519051	-151.8154
51.500000	78.574242	-152.7971
53.000000	78.636070	-153.6152
54.500000	78.719925	-154.6478
56.000000	78.808357	-155.3732
58.000000	78.936317	-156.7219
60.000000	79.034210	-158.7401
61.500000	79.021271	-158.7047
63.000000	79.121704	-159.4364
65.000000	79.172600	-160.1711
67.000000	79.236137	-161.2659
69.000000	79.288872	-162.2186
71.000000	79.354027	-163.1591
73.000000	79.387611	-164.0491
75.000000	79.429619	-164.7758
77.500000	79.488457	-165.7495
80.000000	79.545036	-166.7939
82.500000	79.604118	-167.7031
85.000000	79.631577	-168.5490
87.500000	79.688042	-169.5270
90.000000	79.712418	-170.4602
92.500000	79.778450	-171.3096
95.000000	79.828377	-172.0780
97.500000	79.843346	-172.8980
100.000000	79.866341	-173.5975
103.000000	79.905754	-174.4778
106.000000	79.943619	-175.2698
109.000000	79.985008	-176.1292
112.000000	80.007912	-177.0987
115.000000	80.030365	-177.9316
118.000000	80.072708	-178.6724
122.000000	80.093628	-179.7584
125.000000	80.108353	179.6064
128.000000	80.133018	178.7905
132.000000	80.167763	177.9534
136.000000	80.169952	177.0398
140.000000	80.176468	176.0143
145.000000	80.205666	174.9971
150.000000	80.217728	173.9403
155.000000	80.225037	172.8330
160.000000	80.235077	171.8385
165.000000	80.229942	170.7732
170.000000	80.257584	169.9193
175.000000	80.246788	169.0533
180.000000	80.236649	167.9614
185.000000	80.272522	167.2314
190.000000	80.257713	166.3537
195.000000	80.253494	165.4563
200.000000	80.252594	164.6848
206.000000	80.244934	163.7499
212.000000	80.225136	162.8150
218.000000	80.223961	161.9050
224.000000	80.197418	161.0601
230.000000	80.177589	160.1899
236.000000	80.153625	159.2873
243.000000	80.122574	158.2634
250.000000	80.106705	157.3055
258.000000	80.075829	156.1888
265.000000	80.048744	155.3082
272.000000	79.996078	154.5151
280.000000	79.943390	153.5046
290.000000	79.896950	152.2566
300.000000	79.777313	150.9923
307.000000	79.702560	150.3457
315.000000	79.623016	149.6427
325.000000	79.437737	149.0745
335.000000	79.305115	149.3680
345.000000	79.372055	149.9790
355.000000	79.536407	149.3396
365.000000	79.614235	148.0970
375.000000	79.608185	146.7726
387.000000	79.554634	145.4395
400.000000	79.477585	144.2468
412.000000	79.417847	143.2250
425.000000	79.339867	142.2584
437.000000	79.270866	141.3474
450.000000	79.180405	140.4556
462.000000	79.109985	139.7512
475.000000	79.024193	138.8956
487.000000	78.939644	138.2859
500.000000	78.868866	137.6558
515.000000	78.770660	136.9290
530.000000	78.684700	136.2217
545.000000	78.578918	135.6534
560.000000	78.486328	135.0549
580.000000	78.368156	134.4324
600.000000	78.252495	133.8048
615.000000	78.152794	133.4903
630.000000	78.063965	133.1769
650.000000	77.946487	132.8399
670.000000	77.847145	132.4719
690.000000	77.730583	132.4055
710.000000	77.640457	132.1237
730.000000	77.530907	132.0782
750.000000	77.435226	132.0493
775.000000	77.323097	132.1607
800.000000	77.233971	132.3604
825.000000	77.132996	132.5919
850.000000	77.032516	132.9724
875.000000	76.905823	133.4396
900.000000	76.832306	134.5868
925.000000	76.876953	135.7304
950.000000	76.923515	136.6451
975.000000	77.000679	137.3256
1000.000000	77.019226	138.2021
1030.000000	77.237770	138.7808
1060.000000	77.401642	139.5026
1090.000000	77.603775	139.7829
1120.000000	77.825630	139.8112
1150.000000	78.054413	139.3661
1180.000000	78.257805	138.6541
1220.000000	78.442070	137.2815
1250.000000	78.527130	135.9579
1280.000000	78.525040	134.6923
1320.000000	78.414230	133.3890
1360.000000	78.238716	133.1039
1400.000000	78.072365	133.6778
1450.000000	78.013092	135.0414
1500.000000	78.100983	136.5685
1550.000000	78.256264	137.6214
1600.000000	78.455978	138.5398
1650.000000	78.656166	139.1511
1700.000000	78.849365	139.5960
1750.000000	79.045113	139.8737
1800.000000	79.249397	140.2590
1850.000000	79.447235	140.5126
1900.000000	79.645317	140.6971
1950.000000	79.844193	140.8823
2000.000000	80.075394	141.1957
2060.000000	80.301239	141.2303
2120.000000	80.559769	141.3225
2180.000000	80.819595	141.3562
2240.000000	81.082695	141.1894
2300.000000	81.343689	141.0370
2360.000000	81.611771	140.7449
2430.000000	81.905708	140.1837
2500.000000	82.188759	139.5087
2580.000000	82.464813	138.6155
2650.000000	82.692375	137.7375
2720.000000	82.871071	136.8944
2800.000000	83.044502	136.3123
2900.000000	83.381775	136.1065
3000.000000	83.866470	134.2295
3070.000000	84.030571	131.9005
3150.000000	84.041603	129.5388
3250.000000	83.942749	127.3531
3350.000000	83.772324	126.0129
3450.000000	83.563347	125.3394
3550.000000	83.342873	125.3104
3650.000000	83.111755	125.8141
3750.000000	82.916321	126.8578
3870.000000	82.709381	128.6754
4000.000000	82.519913	131.0132
4120.000000	82.442032	133.6480
4250.000000	82.391068	136.4807
4370.000000	82.343788	139.1832
4500.000000	82.245392	142.4734
4620.000000	82.172882	146.5159
4750.000000	82.275223	151.9204
4870.000000	82.596703	156.8239
5000.000000	83.104202	161.2845
5150.000000	83.804108	165.4207
5300.000000	84.584099	168.2288
5450.000000	85.390663	169.8109
5600.000000	86.251846	169.8270
5800.000000	87.272781	165.5938
6000.000000	87.485107	157.0390
6150.000000	86.870239	151.1252
6300.000000	85.815353	148.0341
6500.000000	84.213081	148.8602
6700.000000	82.780991	153.5480
6900.000000	81.553047	160.2348
7100.000000	80.504089	168.3495
7300.000000	79.636612	177.8748
7500.000000	78.989510	-171.7673
7750.000000	78.529068	-158.4052
8000.000000	78.479408	-144.6919
8250.000000	78.823357	-132.3221
8500.000000	79.613304	-122.0953
8750.000000	80.733490	-116.4930
9000.000000	81.696159	-118.8168
9250.000000	81.313293	-127.7661
9500.000000	79.134521	-133.3410
9750.000000	76.234024	-129.8031
10000.000000	73.496796	-118.3810
10300.000000	70.765968	-101.2797
10600.000000	68.370132	-80.6136
10900.000000	66.420555	-57.7354
11200.000000	64.788177	-33.1521
11500.000000	63.531422	-7.1089
11800.000000	62.548958	20.4112
12200.000000	61.907204	59.2249
12500.000000	62.249847	87.8313
12800.000000	63.031052	114.9773
13200.000000	64.875473	145.0928
13600.000000	66.540298	167.4652
14000.000000	67.555634	-173.7685
14500.000000	68.563583	-149.9826
15000.000000	69.765099	-127.4371
15500.000000	71.052376	-109.8821
16000.000000	71.641449	-99.2990
16500.000000	70.676056	-89.3417
17000.000000	68.813057	-73.0963
17500.000000	67.069748	-50.0811
18000.000000	65.870636	-25.0215
18500.000000	65.580017	-1.8917
19000.000000	66.229683	12.3812
19500.000000	66.691032	5.8890
