* Measurement data measured by REW V5.20
* Source: Headset (USB-C to 3.5mm Headphone Jack Adapter), MICROPHONE (Master Volume), R, volume: 0.260
* Format: 512k Log Swept Sine, 1 sweep at 0.0 dBFS with no timing reference
* Dated: Feb 1, 2022 5:45:01 PM
* REW Settings:
*  C-weighting compensation: Off
*  Target level: 75.0 dB
* Note: ; 
* Measurement: EXT L
* Smoothing: 1/48 octave
* Frequency Step: 1/24 octave
* Start Frequency: 20.600 Hz
*
* Freq(Hz)	SPL(dB)	Phase(degrees)
20.600000	82.192993	30.8730
21.200001	82.238182	29.2745
21.799999	82.264183	27.5856
22.400000	82.300835	26.0005
23.000000	82.307358	24.5417
23.600000	82.312012	22.9467
24.299999	82.364906	21.3756
25.000000	82.360161	20.1700
25.799999	82.293510	18.3839
26.500000	82.271698	16.7379
27.200001	82.263130	15.3047
28.000000	82.216164	13.7706
29.000000	82.196686	11.7008
30.000000	82.180679	9.9005
30.700001	82.131592	8.6320
31.500000	82.080338	7.2012
32.500000	82.039818	5.4409
33.500000	82.003662	3.7324
34.500000	81.974365	2.2197
35.500000	81.916733	0.5897
36.500000	81.860130	-0.9073
37.500000	81.800278	-2.3576
38.700001	81.741653	-4.2702
40.000000	81.690140	-5.9935
41.200001	81.598068	-7.6347
42.500000	81.495377	-9.2307
43.700001	81.478638	-10.9014
45.000000	81.421112	-12.6095
46.200001	81.355911	-13.9276
47.500000	81.272064	-15.5109
48.700001	81.196945	-16.8790
50.000000	81.120567	-18.1335
51.500000	81.050797	-19.9065
53.000000	80.968857	-21.3495
54.500000	80.867256	-23.0864
56.000000	80.788551	-24.2981
58.000000	80.681694	-26.2372
60.000000	80.524368	-28.1751
61.500000	80.495827	-29.5419
63.000000	80.406319	-30.8637
65.000000	80.289810	-32.5060
67.000000	80.183868	-34.1365
69.000000	80.068237	-35.6896
71.000000	79.958572	-37.2150
73.000000	79.850677	-38.7535
75.000000	79.736877	-40.1556
77.500000	79.598701	-41.9058
80.000000	79.462860	-43.6463
82.500000	79.317207	-45.2036
85.000000	79.180122	-46.7961
87.500000	79.039856	-48.2887
90.000000	78.911972	-49.7759
92.500000	78.780823	-51.1817
95.000000	78.655853	-52.5381
97.500000	78.529449	-53.9024
100.000000	78.415695	-55.1902
103.000000	78.260651	-56.6693
106.000000	78.415527	-56.9884
109.000000	78.016518	-59.3882
112.000000	77.847557	-60.9450
115.000000	77.720497	-62.2440
118.000000	77.587814	-63.5495
122.000000	77.419327	-65.1869
125.000000	77.285118	-66.3900
128.000000	77.169121	-67.5382
132.000000	77.002411	-68.9983
136.000000	76.858398	-70.4559
140.000000	76.709175	-71.8999
145.000000	76.521576	-73.5500
150.000000	76.340332	-75.1984
155.000000	76.163628	-76.6725
160.000000	75.994141	-78.1489
165.000000	75.830101	-79.5904
170.000000	75.667793	-80.9623
175.000000	75.516716	-82.2683
180.000000	75.371201	-83.5132
185.000000	75.220390	-84.6929
190.000000	75.084305	-85.8795
195.000000	74.940659	-86.9927
200.000000	74.811470	-88.0425
206.000000	74.657227	-89.3293
212.000000	74.528427	-90.3864
218.000000	74.367828	-91.6483
224.000000	74.230492	-92.7404
230.000000	74.092232	-93.8139
236.000000	73.971863	-94.8085
243.000000	73.827408	-95.9500
250.000000	73.692871	-97.0275
258.000000	73.540741	-98.2168
265.000000	73.414314	-99.1642
272.000000	73.299774	-100.1189
280.000000	73.170723	-101.0896
290.000000	73.018501	-102.3067
300.000000	72.876526	-103.4901
307.000000	72.781273	-104.1432
315.000000	72.666168	-104.9261
325.000000	72.555862	-105.9383
335.000000	72.442436	-106.8115
345.000000	72.337097	-107.6309
355.000000	72.236511	-108.4410
365.000000	72.148422	-109.1795
375.000000	72.063156	-109.8705
387.000000	71.966026	-110.7265
400.000000	71.857811	-111.6150
412.000000	71.758186	-112.2594
425.000000	71.665672	-112.9029
437.000000	71.581375	-113.4637
450.000000	71.494125	-114.0727
462.000000	71.403236	-114.5347
475.000000	71.306519	-114.8709
487.000000	71.229050	-115.0349
500.000000	71.167099	-115.1544
515.000000	71.105438	-115.2440
530.000000	71.068710	-115.3114
545.000000	71.037918	-115.3002
560.000000	71.006798	-115.3617
580.000000	70.983147	-115.3214
600.000000	70.964073	-115.2670
615.000000	70.962082	-115.1536
630.000000	70.962708	-115.0154
650.000000	70.972984	-114.7902
670.000000	70.988640	-114.5159
690.000000	71.019608	-114.2028
710.000000	71.055870	-113.8128
730.000000	71.110191	-113.4626
750.000000	71.171623	-113.0838
775.000000	71.242195	-112.7533
800.000000	71.281784	-112.1124
825.000000	71.388771	-111.3777
850.000000	71.475609	-110.9036
875.000000	71.502815	-109.9938
900.000000	71.611359	-108.3904
925.000000	71.828560	-106.9517
950.000000	72.086761	-105.9029
975.000000	72.357193	-105.0838
1000.000000	72.639709	-104.4437
1030.000000	72.981148	-103.8257
1060.000000	73.332848	-103.4221
1090.000000	73.687088	-103.2234
1120.000000	74.040253	-103.2352
1150.000000	74.388588	-103.3874
1180.000000	74.728218	-103.6894
1220.000000	75.165894	-104.2943
1250.000000	75.482498	-104.8911
1280.000000	75.786491	-105.5798
1320.000000	76.178406	-106.5988
1360.000000	76.552277	-107.7491
1400.000000	76.910950	-109.0108
1450.000000	77.339706	-110.7675
1500.000000	77.744308	-112.7400
1550.000000	78.122612	-114.9224
1600.000000	78.467247	-117.3426
1650.000000	78.766167	-119.9874
1700.000000	79.015549	-122.8220
1750.000000	79.204185	-125.8005
1800.000000	79.325546	-128.8237
1850.000000	79.380074	-131.8234
1900.000000	79.365585	-134.6798
1950.000000	79.293831	-137.3244
2000.000000	79.170326	-139.6910
2060.000000	78.972908	-142.0831
2120.000000	78.742355	-143.9754
2180.000000	78.494476	-145.3728
2240.000000	78.246239	-146.2950
2300.000000	78.011322	-146.8019
2360.000000	77.796364	-146.9442
2430.000000	77.583405	-146.7357
2500.000000	77.413757	-146.1958
2580.000000	77.278168	-145.3025
2650.000000	77.213203	-144.3259
2720.000000	77.198166	-143.2477
2800.000000	77.240532	-141.9823
2900.000000	77.383644	-140.4423
3000.000000	77.616043	-139.0761
3070.000000	77.829155	-138.2991
3150.000000	78.116859	-137.6488
3250.000000	78.536743	-137.3062
3350.000000	79.005157	-137.5887
3450.000000	79.501205	-138.6118
3550.000000	79.999184	-140.4779
3650.000000	80.459076	-143.2402
3750.000000	80.838516	-146.9019
3870.000000	81.119316	-152.2622
4000.000000	81.135788	-158.6281
4120.000000	80.880760	-164.2105
4250.000000	80.387421	-169.2434
4370.000000	79.815895	-172.7146
4500.000000	79.151756	-175.2782
4620.000000	78.548965	-176.6790
4750.000000	77.940544	-177.3862
4870.000000	77.438972	-177.4987
5000.000000	76.967896	-177.2497
5150.000000	76.520897	-176.6742
5300.000000	76.172890	-175.9848
5450.000000	75.919563	-175.3617
5600.000000	75.762306	-174.9380
5800.000000	75.674805	-175.1238
6000.000000	75.648720	-176.4212
6150.000000	75.622360	-178.2067
6300.000000	75.527634	179.3232
6500.000000	75.188782	175.4886
6700.000000	74.552147	172.1533
6900.000000	73.668594	170.5762
7100.000000	72.678474	171.6131
7300.000000	71.780357	175.3290
7500.000000	71.089333	-178.7116
7750.000000	70.698853	-169.1614
8000.000000	70.899269	-159.3734
8250.000000	71.524109	-151.3096
8500.000000	72.307175	-145.7522
8750.000000	73.009087	-142.4431
9000.000000	73.495552	-140.3502
9250.000000	73.785118	-138.3848
9500.000000	73.978455	-136.0366
9750.000000	74.180176	-133.3622
10000.000000	74.477104	-130.7040
10300.000000	75.036057	-128.4427
10600.000000	75.874779	-128.1922
10900.000000	77.007080	-131.7840
11200.000000	78.287750	-141.5941
11500.000000	79.086823	-159.7912
11800.000000	78.506027	177.4383
12200.000000	75.927559	154.2957
12500.000000	73.844940	144.7041
12800.000000	72.119690	139.3546
13200.000000	70.411575	136.1870
13600.000000	69.240738	135.6099
14000.000000	68.443405	136.7356
14500.000000	67.875259	139.7410
15000.000000	67.938416	142.1412
15500.000000	68.325821	139.9320
16000.000000	68.657974	132.6140
16500.000000	68.830002	119.5984
17000.000000	68.724838	99.6629
17500.000000	68.174751	71.7206
18000.000000	67.195412	34.4365
18500.000000	66.042694	-16.6128
19000.000000	64.885765	-89.5930
19500.000000	63.527096	170.6231
