* Measurement data measured by REW V5.30.9
* Source: Headset (USB-C to 3.5mm Headphone Jack Adapter), MICROPHONE (Master Volume), R, volume: 0.250
* Format: 512k Log Swept Sine, 1 sweep at -12.0 dBFS with no timing reference
* Dated: Jul 23, 2024 10:04:45 PM
* REW Settings:
*  C-weighting compensation: Off
*  Target level: 75.0 dB
* Note: ; 
* Measurement: Galaxy Buds 3 Pro ANC L
* Smoothing: 1/24 octave
* Frequency Step: 96 ppo
* Start Frequency: 20.141602 Hz
*
* Freq(Hz) SPL(dB) Phase(degrees)
20.141602 83.074 119.1301
20.287556 83.206 118.0309
20.434568 83.394 116.4470
20.582645 83.604 114.6467
20.731796 83.820 112.7439
20.882027 84.033 110.7787
21.033346 84.241 108.7655
21.185762 84.442 106.7166
21.339283 84.635 104.6448
21.493916 84.820 102.5642
21.649670 84.995 100.4944
21.806553 85.160 98.4503
21.964573 85.312 96.4492
22.123737 85.451 94.5034
22.284056 85.574 92.6182
22.445536 85.680 90.7961
22.608185 85.771 89.0309
22.772013 85.845 87.3129
22.937029 85.905 85.6292
23.103241 85.954 83.9647
23.270657 85.993 82.3071
23.439285 86.026 80.6471
23.609137 86.056 78.9812
23.780218 86.086 77.3134
23.952539 86.117 75.6534
24.126110 86.150 74.0156
24.300938 86.183 72.4176
24.477032 86.214 70.8736
24.654402 86.242 69.3961
24.833057 86.263 67.9898
25.013008 86.276 66.6537
25.194263 86.279 65.3805
25.376831 86.273 64.1579
25.560722 86.258 62.9729
25.745945 86.236 61.8123
25.932510 86.210 60.6674
26.120428 86.183 59.5342
26.309708 86.157 58.4144
26.500359 86.134 57.3152
26.692390 86.113 56.2456
26.885815 86.096 55.2158
27.080641 86.079 54.2330
27.276878 86.063 53.3009
27.474539 86.046 52.4183
27.673630 86.027 51.5803
27.874165 86.006 50.7794
28.076153 85.984 50.0079
28.279604 85.961 49.2595
28.484529 85.938 48.5305
28.690941 85.914 47.8202
28.898848 85.889 47.1304
29.108261 85.863 46.4638
29.319191 85.834 45.8232
29.531651 85.802 45.2106
29.745649 85.768 44.6265
29.961199 85.731 44.0707
30.178310 85.694 43.5426
30.396996 85.658 43.0417
30.617264 85.626 42.5675
30.839128 85.598 42.1184
31.062601 85.575 41.6913
31.287693 85.556 41.2796
31.514416 85.538 40.8741
31.742783 85.522 40.4640
31.972803 85.504 40.0386
32.204491 85.484 39.5921
32.437859 85.462 39.1250
32.672916 85.438 38.6471
32.909679 85.414 38.1750
33.148155 85.390 37.7312
33.388359 85.366 37.3361
33.630306 85.342 37.0041
33.874004 85.317 36.7397
34.119469 85.292 36.5356
34.366711 85.266 36.3761
34.615746 85.241 36.2399
34.866585 85.217 36.1081
35.119244 85.197 35.9668
35.373734 85.181 35.8082
35.630066 85.169 35.6304
35.888256 85.159 35.4327
36.148315 85.150 35.2137
36.410259 85.139 34.9703
36.674103 85.125 34.7013
36.939857 85.110 34.4113
37.207539 85.094 34.1163
37.477161 85.079 33.8427
37.748737 85.068 33.6214
38.022282 85.060 33.4794
38.297806 85.053 33.4278
38.575329 85.045 33.4545
38.854862 85.034 33.5278
39.136421 85.017 33.6043
39.420021 84.996 33.6441
39.705673 84.972 33.6270
39.993397 84.950 33.5572
40.283207 84.932 33.4598
40.575115 84.917 33.3692
40.869141 84.903 33.3118
41.165295 84.888 33.2941
41.463596 84.868 33.3040
41.764057 84.844 33.3194
42.066696 84.818 33.3220
42.371529 84.793 33.3105
42.678570 84.772 33.3031
42.987835 84.756 33.3289
43.299343 84.742 33.4144
43.613110 84.728 33.5712
43.929150 84.712 33.7886
44.247478 84.693 34.0354
44.568115 84.674 34.2713
44.891075 84.655 34.4606
45.216373 84.635 34.5839
45.544029 84.610 34.6442
45.874062 84.581 34.6658
46.206486 84.548 34.6861
46.541317 84.517 34.7433
46.878574 84.494 34.8609
47.218277 84.484 35.0393
47.560440 84.487 35.2584
47.905083 84.495 35.4919
48.252224 84.500 35.7247
48.601879 84.497 35.9597
48.954067 84.487 36.2112
49.308807 84.472 36.4866
49.666119 84.456 36.7736
50.026020 84.437 37.0411
50.388531 84.412 37.2577
50.753666 84.378 37.4136
51.121449 84.339 37.5293
51.491894 84.302 37.6425
51.865025 84.274 37.7840
52.240860 84.255 37.9607
52.619419 84.241 38.1626
53.000721 84.222 38.3845
53.384785 84.193 38.6419
53.771633 84.158 38.9615
54.161285 84.125 39.3538
54.553761 84.098 39.7930
54.949081 84.075 40.2296
55.347263 84.050 40.6267
55.748333 84.015 40.9906
56.152309 83.969 41.3650
56.559212 83.920 41.7943
56.969063 83.875 42.2872
57.381886 83.837 42.8131
57.797699 83.803 43.3322
58.216526 83.769 43.8259
58.638386 83.733 44.3004
59.063305 83.698 44.7664
59.491302 83.668 45.2228
59.922401 83.643 45.6605
60.356625 83.617 46.0737
60.793995 83.584 46.4603
61.234531 83.541 46.8111
61.678261 83.489 47.1134
62.125206 83.433 47.3781
62.575390 83.378 47.6624
63.028835 83.328 48.0513
63.485569 83.288 48.6004
63.945610 83.256 49.2893
64.408989 83.230 50.0365
64.875725 83.206 50.7627
65.345840 83.184 51.4404
65.819366 83.163 52.0824
66.296318 83.144 52.6956
66.776726 83.123 53.2589
67.260620 83.094 53.7550
67.748016 83.053 54.2153
68.238945 83.003 54.7176
68.733429 82.948 55.3241
69.231499 82.890 56.0165
69.733177 82.830 56.7035
70.238495 82.764 57.3051
70.747475 82.697 57.8356
71.260139 82.637 58.3965
71.776520 82.594 59.0814
72.296638 82.565 59.8870
72.820526 82.539 60.7247
73.348213 82.508 61.5095
73.879723 82.469 62.2290
74.415085 82.422 62.9349
74.954330 82.363 63.6913
75.497482 82.285 64.5408
76.044571 82.192 65.4977
76.595619 82.100 66.5473
77.150665 82.025 67.6380
77.709732 81.971 68.6811
78.272850 81.934 69.5868
78.840050 81.904 70.3242
79.411354 81.874 70.9578
79.986801 81.836 71.6033
80.566422 81.785 72.3324
81.150238 81.722 73.1415
81.738289 81.648 74.0206
82.330597 81.572 75.0079
82.927200 81.499 76.1230
83.528122 81.435 77.2751
84.133400 81.379 78.3312
84.743065 81.329 79.2820
85.357147 81.282 80.2462
85.975677 81.235 81.2886
86.598694 81.187 82.3305
87.226227 81.135 83.3084
87.858307 81.084 84.3087
88.494965 81.035 85.4469
89.136238 80.981 86.6694
89.782158 80.918 87.8131
90.432755 80.846 88.8299
91.088066 80.770 89.8456
91.748131 80.695 90.9834
92.412979 80.624 92.2273
93.082642 80.556 93.4917
93.757156 80.490 94.7450
94.436562 80.423 96.0163
95.120888 80.354 97.3268
95.810173 80.285 98.6779
96.504456 80.218 100.0769
97.203766 80.148 101.5227
97.908142 80.068 102.9756
98.617622 79.978 104.3763
99.332245 79.883 105.6962
100.052048 79.790 106.9634
100.777069 79.704 108.2428
101.507339 79.626 109.5811
102.242905 79.563 110.9672
102.983795 79.519 112.3835
103.730057 79.490 113.8657
104.481728 79.461 115.4242
105.238846 79.419 116.9587
106.001450 79.369 118.3814
106.769577 79.317 119.7560
107.543274 79.261 121.1865
108.322578 79.195 122.6756
109.107529 79.120 124.1907
109.898170 79.047 125.7389
110.694534 78.979 127.3231
111.496674 78.921 128.9224
112.304626 78.874 130.5184
113.118431 78.836 132.1092
113.938133 78.802 133.7337
114.763779 78.768 135.4578
115.595406 78.733 137.2863
116.433060 78.693 139.1102
117.276779 78.636 140.7987
118.126617 78.555 142.3642
118.982613 78.461 143.9580
119.844810 78.378 145.6760
120.713257 78.323 147.4840
121.587997 78.293 149.3163
122.469070 78.270 151.1171
123.356529 78.236 152.8597
124.250420 78.191 154.6022
125.150787 78.151 156.4358
126.057678 78.121 158.3581
126.971146 78.090 160.3018
127.891228 78.047 162.2629
128.817978 77.991 164.2623
129.751450 77.936 166.2339
130.691681 77.894 168.0839
131.638733 77.861 169.8084
132.592636 77.829 171.4960
133.553452 77.793 173.2323
134.521240 77.752 175.0431
135.496033 77.711 176.9341
136.477890 77.675 178.9178
137.466858 77.644 -179.0231
138.462997 77.620 -176.9244
139.466354 77.610 -174.7986
140.476990 77.607 -172.6996
141.494949 77.592 -170.7192
142.520279 77.559 -168.8342
143.553040 77.514 -166.9236
144.593277 77.467 -164.9379
145.641052 77.423 -162.9093
146.696426 77.391 -160.8664
147.759445 77.373 -158.8359
148.830170 77.362 -156.8485
149.908661 77.347 -154.9137
150.994965 77.320 -152.9740
152.089142 77.281 -150.9042
153.191238 77.238 -148.6287
154.301331 77.202 -146.2331
155.419464 77.179 -143.9216
156.545700 77.165 -141.8110
157.680099 77.151 -139.8464
158.822708 77.130 -137.9290
159.973602 77.100 -135.9783
161.132843 77.074 -133.9224
162.300476 77.062 -131.7636
163.476578 77.053 -129.5871
164.661194 77.024 -127.4372
165.854401 76.970 -125.2608
167.056244 76.906 -123.0096
168.266800 76.855 -120.7077
169.486130 76.822 -118.4058
170.714294 76.795 -116.1225
171.951355 76.763 -113.8343
173.197388 76.726 -111.4848
174.452454 76.688 -109.1062
175.716614 76.642 -106.8305
176.989929 76.587 -104.7117
178.272476 76.536 -102.6566
179.564316 76.505 -100.5153
180.865509 76.502 -98.2253
182.176132 76.514 -95.8801
183.496262 76.526 -93.5786
184.825958 76.523 -91.2997
186.165283 76.498 -88.9829
187.514313 76.459 -86.5868
188.873123 76.418 -84.1189
190.241776 76.373 -81.6180
191.620346 76.321 -79.1204
193.008911 76.266 -76.6645
194.407532 76.224 -74.2680
195.816284 76.201 -71.9313
197.235245 76.179 -69.6211
198.664490 76.136 -67.2787
200.104095 76.076 -64.9004
201.554138 76.017 -62.5104
203.014679 75.971 -60.0568
204.485809 75.937 -57.4720
205.967590 75.910 -54.8050
207.460114 75.885 -52.1866
208.963455 75.860 -49.6811
210.477692 75.835 -47.1906
212.002899 75.811 -44.5999
213.539154 75.784 -41.8973
215.086548 75.755 -39.1491
216.645157 75.720 -36.4520
218.215057 75.676 -33.8144
219.796341 75.615 -31.1804
221.389069 75.542 -28.4846
222.993347 75.470 -25.7088
224.609253 75.411 -22.9265
226.236862 75.370 -20.1857
227.876266 75.343 -17.4463
229.527557 75.319 -14.6910
231.190811 75.293 -11.9155
232.866119 75.259 -9.1157
234.553558 75.218 -6.2971
236.253235 75.174 -3.4658
237.965225 75.133 -0.6286
239.689621 75.099 2.1982
241.426514 75.068 5.0320
243.175995 75.041 7.8971
244.938141 75.012 10.7971
246.713058 74.976 13.7158
248.500839 74.933 16.6593
250.301575 74.888 19.6293
252.115356 74.847 22.6011
253.942291 74.812 25.5569
255.782455 74.781 28.5070
257.635956 74.747 31.4865
259.502899 74.708 34.5113
261.383362 74.664 37.5702
263.277466 74.618 40.6516
265.185272 74.573 43.7487
267.106903 74.531 46.8607
269.042480 74.492 49.9827
270.992065 74.459 53.1035
272.955780 74.429 56.2166
274.933716 74.397 59.3293
276.925995 74.361 62.4680
278.932709 74.327 65.6614
280.953979 74.299 68.9238
282.989899 74.275 72.2142
285.040558 74.248 75.4751
287.106079 74.217 78.7104
289.186554 74.183 81.9530
291.282104 74.149 85.2130
293.392853 74.119 88.4944
295.518890 74.093 91.8076
297.660339 74.067 95.1140
299.817322 74.042 98.3806
301.989929 74.015 101.6437
304.178284 73.984 104.9411
306.382477 73.949 108.2749
308.602661 73.913 111.6405
310.838928 73.878 115.0579
313.091400 73.846 118.5328
315.360199 73.818 122.0002
317.645416 73.796 125.4053
319.947205 73.779 128.8220
322.265686 73.761 132.3264
324.600952 73.737 135.8892
326.953156 73.705 139.4515
329.322388 73.669 142.9801
331.708801 73.633 146.4756
334.112488 73.597 149.9988
336.533600 73.563 153.6084
338.972260 73.531 157.2802
341.428589 73.505 160.9710
343.902710 73.481 164.6699
346.394775 73.454 168.3463
348.904907 73.425 171.9572
351.433228 73.400 175.5428
353.979858 73.377 179.1646
356.544952 73.356 -177.1651
359.128632 73.338 -173.4601
361.731018 73.325 -169.7320
364.352264 73.315 -165.9749
366.992523 73.302 -162.1943
369.651917 73.287 -158.4336
372.330566 73.268 -154.7256
375.028625 73.253 -151.0123
377.746246 73.245 -147.2158
380.483551 73.243 -143.3227
383.240692 73.239 -139.3481
386.017822 73.227 -135.3343
388.815063 73.205 -131.3519
391.632568 73.175 -127.4236
394.470490 73.140 -123.5025
397.328979 73.114 -119.5602
400.208191 73.102 -115.5817
403.108276 73.103 -111.5508
406.029358 73.110 -107.4682
408.971619 73.122 -103.3589
411.935181 73.138 -99.2455
414.920227 73.153 -95.1301
417.926910 73.168 -91.0128
420.955383 73.183 -86.8990
424.005798 73.204 -82.8155
427.078308 73.227 -78.7705
430.173096 73.246 -74.7086
433.290314 73.259 -70.6033
436.430115 73.266 -66.5032
439.592682 73.269 -62.4178
442.778137 73.272 -58.2993
445.986694 73.282 -54.1055
449.218506 73.301 -49.8600
452.473724 73.325 -45.6158
455.752533 73.349 -41.4216
459.055115 73.378 -37.3030
462.381622 73.408 -33.1844
465.732239 73.432 -28.9695
469.107117 73.446 -24.6476
472.506470 73.458 -20.2821
475.930450 73.475 -15.9467
479.379242 73.503 -11.6608
482.853027 73.542 -7.3977
486.351990 73.594 -3.1401
489.876282 73.657 1.0782
493.426117 73.728 5.2226
497.001678 73.798 9.3055
500.603149 73.858 13.4030
504.230713 73.904 17.5984
507.884583 73.940 21.8969
511.564911 73.973 26.2558
515.271912 74.007 30.6313
519.005798 74.042 34.9738
522.766724 74.079 39.2577
526.554932 74.122 43.4816
530.370544 74.173 47.6385
534.213806 74.227 51.7592
538.084961 74.279 55.8870
541.984131 74.331 60.0269
545.911560 74.387 64.1654
549.867432 74.445 68.3309
553.851990 74.500 72.5836
557.865417 74.547 76.9205
561.907959 74.589 81.2615
565.979797 74.637 85.5242
570.081116 74.696 89.7220
574.212158 74.766 93.9238
578.373108 74.837 98.1462
582.564209 74.903 102.3652
586.785706 74.961 106.5919
591.037781 75.016 110.8568
595.320679 75.073 115.1465
599.634644 75.129 119.4044
603.979858 75.182 123.6158
608.356567 75.233 127.8274
612.764954 75.285 132.0703
617.205322 75.342 136.3445
621.677856 75.400 140.6469
626.182800 75.453 144.9629
630.720398 75.500 149.2582
635.290833 75.548 153.4866
639.894409 75.600 157.6250
644.531372 75.653 161.7347
649.201904 75.706 165.9032
653.906311 75.761 170.1371
658.644775 75.816 174.3818
663.417603 75.865 178.6011
668.224976 75.906 -177.2120
673.067200 75.943 -173.0442
677.944519 75.987 -168.8621
682.857178 76.039 -164.6331
687.805420 76.091 -160.3472
692.789551 76.139 -156.0718
697.809814 76.185 -151.8887
702.866455 76.234 -147.7568
707.959717 76.285 -143.5884
713.089905 76.335 -139.3652
718.257263 76.381 -135.1301
723.462036 76.422 -130.9458
728.704529 76.460 -126.8341
733.985046 76.499 -122.7305
739.303833 76.540 -118.5691
744.661133 76.579 -114.3489
750.057251 76.611 -110.1102
755.492493 76.637 -105.9006
760.967102 76.662 -101.7362
766.481384 76.688 -97.5747
772.035645 76.716 -93.3694
777.630127 76.747 -89.1274
783.265137 76.776 -84.8845
788.940979 76.801 -80.6506
794.657959 76.823 -76.4010
800.416382 76.845 -72.1224
806.216553 76.866 -67.8545
812.058716 76.886 -63.6304
817.943237 76.903 -59.4412
823.870361 76.919 -55.2571
829.840454 76.937 -51.0416
835.853821 76.954 -46.8062
841.910767 76.962 -42.5686
848.011597 76.961 -38.3184
854.156616 76.957 -34.0559
860.346191 76.959 -29.7950
866.580627 76.966 -25.5421
872.860229 76.972 -21.3013
879.185364 76.975 -17.0448
885.556274 76.972 -12.7214
891.973389 76.962 -8.3268
898.437012 76.943 -3.9132
904.947449 76.923 0.4930
911.505066 76.906 4.9047
918.110229 76.894 9.3477
924.763245 76.883 13.8306
931.464478 76.872 18.3278
938.214233 76.864 22.8154
945.012939 76.859 27.2975
951.860901 76.857 31.7791
958.758484 76.856 36.2897
965.706055 76.856 40.8726
972.703979 76.859 45.4963
979.752563 76.861 50.1193
986.852234 76.864 54.7404
994.003357 76.872 59.3783
1001.206299 76.886 64.0403
1008.461426 76.904 68.7122
1015.769165 76.924 73.3763
1023.129822 76.947 78.0286
1030.543823 76.980 82.6774
1038.011597 77.026 87.3264
1045.533447 77.081 91.9563
1053.109863 77.144 96.5527
1060.741089 77.213 101.1226
1068.427612 77.285 105.6935
1076.169922 77.358 110.2690
1083.968262 77.428 114.8203
1091.823120 77.496 119.3127
1099.734863 77.563 123.7384
1107.703979 77.633 128.1277
1115.730835 77.709 132.4977
1123.815918 77.790 136.8278
1131.959595 77.878 141.0980
1140.162231 77.973 145.3088
1148.424316 78.073 149.4500
1156.746216 78.177 153.5233
1165.128418 78.282 157.5587
1173.571411 78.381 161.5712
1182.075562 78.474 165.5487
1190.641357 78.561 169.4795
1199.269287 78.643 173.3627
1207.959717 78.722 177.1831
1216.713135 78.798 -179.0941
1225.529907 78.865 -175.4713
1234.410645 78.926 -171.8926
1243.355713 78.987 -168.3060
1252.365601 79.047 -164.6862
1261.440796 79.102 -161.0338
1270.581665 79.150 -157.3866
1279.788818 79.198 -153.8055
1289.062744 79.248 -150.3019
1298.403809 79.295 -146.8419
1307.812622 79.335 -143.3964
1317.289551 79.370 -139.9529
1326.835205 79.401 -136.5101
1336.449951 79.428 -133.0721
1346.134399 79.452 -129.6559
1355.889038 79.476 -126.2659
1365.714355 79.498 -122.8842
1375.610840 79.518 -119.5125
1385.579102 79.534 -116.1448
1395.619629 79.547 -112.7478
1405.732910 79.553 -109.3138
1415.919434 79.552 -105.8792
1426.179810 79.547 -102.4724
1436.514526 79.542 -99.0770
1446.924072 79.544 -95.7036
1457.409058 79.552 -92.3925
1467.970093 79.563 -89.1168
1478.607666 79.573 -85.7983
1489.322266 79.583 -82.4144
1500.114502 79.592 -79.0466
1510.984985 79.604 -75.7761
1521.934204 79.621 -72.6055
1532.962769 79.638 -69.4772
1544.071289 79.651 -66.3337
1555.260254 79.665 -63.1652
1566.530273 79.685 -59.9871
1577.881958 79.714 -56.8206
1589.315918 79.748 -53.6849
1600.832764 79.784 -50.5875
1612.433105 79.824 -47.5277
1624.117432 79.870 -44.4963
1635.886475 79.917 -41.5029
1647.740723 79.962 -38.5696
1659.680908 80.002 -35.6857
1671.707642 80.039 -32.8351
1683.821533 80.075 -30.0044
1696.023193 80.112 -27.2089
1708.313232 80.150 -24.4760
1720.692383 80.195 -21.8098
1733.161255 80.251 -19.2029
1745.720459 80.314 -16.6564
1758.370728 80.379 -14.1812
1771.112549 80.443 -11.7776
1783.946777 80.506 -9.4379
1796.874023 80.574 -7.1635
1809.894897 80.650 -4.9713
1823.010132 80.729 -2.8682
1836.220459 80.802 -0.8184
1849.526489 80.864 1.2198
1862.928955 80.919 3.2493
1876.428467 80.975 5.2383
1890.025879 81.040 7.1313
1903.721802 81.111 8.8636
1917.516968 81.181 10.4358
1931.412109 81.245 11.9645
1945.407959 81.304 13.5352
1959.505127 81.362 15.0754
1973.704468 81.427 16.4830
1988.006714 81.495 17.7532
2002.412598 81.561 18.9371
2016.922852 81.622 20.0640
2031.538330 81.673 21.1530
2046.259644 81.717 22.2009
2061.087646 81.765 23.1685
2076.023193 81.825 24.0240
2091.066895 81.893 24.7740
2106.219727 81.958 25.4515
2121.482178 82.012 26.0518
2136.855225 82.055 26.5573
2152.339844 82.093 26.9937
2167.936523 82.128 27.3850
2183.646240 82.165 27.6998
2199.469727 82.206 27.8950
2215.407959 82.252 27.9734
2231.461670 82.300 27.9790
2247.631836 82.342 27.9392
2263.919189 82.373 27.8463
2280.324463 82.388 27.6675
2296.848633 82.393 27.3602
2313.492432 82.402 26.9214
2330.256836 82.423 26.3732
2347.142822 82.456 25.7491
2364.151123 82.490 25.0703
2381.282715 82.515 24.3394
2398.538574 82.524 23.5668
2415.919434 82.517 22.7572
2433.426270 82.503 21.9026
2451.059814 82.492 20.9709
2468.821289 82.491 19.9360
2486.711426 82.499 18.7988
2504.731201 82.511 17.6007
2522.881592 82.528 16.4163
2541.163330 82.554 15.2354
2559.577637 82.590 13.9695
2578.125488 82.636 12.5854
2596.807617 82.687 11.0704
2615.625244 82.747 9.4089
2634.579102 82.815 7.6168
2653.670410 82.889 5.6952
2672.899902 82.967 3.6047
2692.268799 83.052 1.3368
2711.778076 83.151 -1.0740
2731.428711 83.264 -3.6436
2751.221680 83.382 -6.4360
2771.158203 83.496 -9.4888
2791.239258 83.601 -12.7668
2811.465820 83.698 -16.2017
2831.838867 83.788 -19.7966
2852.359619 83.873 -23.5989
2873.029053 83.950 -27.6144
2893.848145 84.018 -31.8116
2914.818115 84.072 -36.1542
2935.940186 84.110 -40.6167
2957.215332 84.141 -45.1479
2978.644531 84.171 -49.7238
3000.229004 84.204 -54.4255
3021.969971 84.238 -59.3525
3043.868408 84.271 -64.4883
3065.925537 84.301 -69.8009
3088.142578 84.327 -75.3250
3110.520508 84.339 -81.1018
3133.060547 84.331 -87.1246
3155.763916 84.303 -93.3436
3178.631836 84.259 -99.6876
3201.665527 84.202 -106.1272
3224.866211 84.132 -112.6733
3248.234863 84.052 -119.3323
3271.772949 83.963 -126.0668
3295.481445 83.864 -132.8723
3319.361816 83.757 -139.7844
3343.415283 83.642 -146.8251
3367.643066 83.519 -153.9789
3392.046387 83.394 -161.2432
3416.626465 83.272 -168.6543
3441.384766 83.154 -176.1946
3466.322510 83.035 176.1973
3491.440918 82.913 168.5293
3516.741455 82.786 160.7546
3542.225098 82.655 152.8108
3567.893555 82.530 144.6675
3593.748047 82.421 136.3430
3619.789795 82.329 127.8635
3646.020264 82.242 119.2598
3672.440918 82.145 110.5630
3699.052979 82.029 101.7538
3725.857910 81.901 92.7834
3752.856934 81.776 83.5847
3780.051758 81.667 74.1345
3807.443604 81.575 64.4857
3835.033936 81.495 54.6884
3862.824219 81.423 44.7841
3890.815918 81.352 34.7966
3919.010254 81.282 24.6627
3947.408936 81.212 14.3066
3976.013428 81.140 3.7048
4004.825195 81.070 -7.1479
4033.845703 81.011 -18.2511
4063.076660 80.966 -29.5626
4092.519287 80.931 -41.0558
4122.175293 80.898 -52.7810
4152.046387 80.869 -64.7854
4182.133789 80.846 -77.0461
4212.439453 80.830 -89.5430
4242.964355 80.828 -102.3376
4273.710449 80.842 -115.4498
4304.679688 80.865 -128.8201
4335.873047 80.895 -142.4442
4367.292480 80.939 -156.3794
4398.939453 81.006 -170.6572
4430.815918 81.095 174.7297
4462.923340 81.194 159.7815
4495.263672 81.287 144.4983
4527.838379 81.370 128.8569
4560.648926 81.455 112.7901
4593.697266 81.547 96.2781
4626.984863 81.640 79.3638
4660.513672 81.722 62.0807
4694.285645 81.784 44.4534
4728.302246 81.825 26.4512
4762.565430 81.852 8.0356
4797.077148 81.862 -10.7471
4831.838867 81.845 -29.8096
4866.852539 81.797 -49.1016
4902.119629 81.719 -68.6171
4937.642578 81.614 -88.3884
4973.422852 81.486 -108.4251
5009.462402 81.339 -128.6674
5045.763184 81.182 -149.1036
5082.326660 81.018 -169.7643
5119.155273 80.848 169.3456
5156.250977 80.677 148.1918
5193.615234 80.516 126.7471
5231.250488 80.372 105.0281
5269.158203 80.244 83.0421
5307.340820 80.134 60.7671
5345.799805 80.040 38.2057
5384.537598 79.955 15.3831
5423.556152 79.877 -7.7605
5462.857422 79.809 -31.3018
5502.443359 79.756 -55.2146
5542.316406 79.715 -79.4516
5582.478516 79.682 -103.9895
5622.931641 79.652 -128.9233
5663.677734 79.628 -154.3580
5704.719238 79.617 179.7145
5746.058105 79.618 153.4066
5787.696289 79.626 126.7965
5829.636230 79.632 99.7514
5871.880371 79.631 72.2854
5914.430664 79.613 45.2022
5957.289062 79.584 20.7549
6000.458008 79.589 2.0846
6043.939941 79.684 -9.1912
6087.736816 79.838 -14.2674
6131.851074 79.981 -15.7210
6176.285156 80.099 -15.5958
6221.041016 80.209 -14.9833
6266.121094 80.323 -14.3552
6311.527832 80.437 -13.8656
6357.263672 80.542 -13.5340
6403.331055 80.623 -13.3608
6449.732422 80.662 -13.3142
6496.469727 80.651 -13.3065
6543.545898 80.599 -13.2585
6590.962891 80.513 -13.0680
6638.723633 80.401 -12.5688
6686.830566 80.273 -11.6621
6735.286133 80.144 -10.3679
6784.092773 80.033 -8.7531
6833.252930 79.958 -6.9130
6882.769531 79.927 -4.9726
6932.645020 79.942 -3.0209
6982.881836 80.003 -1.0923
7033.482910 80.104 0.7792
7084.450195 80.241 2.5250
7135.787109 80.411 4.1064
7187.496094 80.606 5.4977
7239.579590 80.819 6.6615
7292.040527 81.041 7.6043
7344.881836 81.271 8.3629
7398.105957 81.508 8.9455
7451.715820 81.746 9.3227
7505.713867 81.984 9.4683
7560.103516 82.219 9.3664
7614.887207 82.444 9.0075
7670.067871 82.650 8.3855
7725.648438 82.837 7.4872
7781.631836 82.999 6.3293
7838.020508 83.128 4.9463
7894.817871 83.210 3.3630
7952.026855 83.231 1.6135
8009.650391 83.184 -0.2478
8067.691406 83.068 -2.1394
8126.153320 82.877 -3.9206
8185.038574 82.608 -5.4214
8244.350586 82.270 -6.4883
8304.092773 81.889 -6.9791
8364.267578 81.499 -6.7648
8424.878906 81.140 -5.7820
8485.928711 80.857 -4.1338
8547.420898 80.684 -2.1418
8609.359375 80.620 -0.2463
8671.746094 80.632 1.2175
8734.584961 80.678 2.1494
8797.878906 80.724 2.6388
8861.631836 80.747 2.8728
8925.846680 80.741 3.0031
8990.527344 80.713 3.1107
9055.676758 80.677 3.2148
9121.297852 80.645 3.2830
9187.394531 80.619 3.2809
9253.969727 80.598 3.1970
9321.027344 80.587 3.0059
9388.571289 80.589 2.6688
9456.604492 80.597 2.1605
9525.130859 80.597 1.4925
9594.154297 80.576 0.6864
9663.677734 80.526 -0.2544
9733.705078 80.434 -1.3504
9804.239258 80.292 -2.5858
9875.285156 80.100 -3.9016
9946.845703 79.861 -5.2270
10018.924805 79.575 -6.4794
10091.526367 79.242 -7.5965
10164.653320 78.873 -8.5417
10238.310547 78.486 -9.2968
10312.501953 78.095 -9.8358
10387.230469 77.706 -10.1230
10462.500977 77.319 -10.1614
10538.316406 76.929 -10.0173
10614.681641 76.534 -9.7489
10691.599609 76.133 -9.3610
10769.075195 75.726 -8.8312
10847.112305 75.313 -8.1356
10925.714844 74.892 -7.2892
11004.886719 74.466 -6.3174
11084.632812 74.050 -5.2172
11164.957031 73.656 -3.9784
11245.863281 73.287 -2.5943
11327.355469 72.940 -1.0694
11409.438477 72.614 0.5531
11492.116211 72.309 2.2040
11575.392578 72.028 3.7917
11659.272461 71.762 5.2516
11743.760742 71.499 6.6190
11828.861328 71.229 7.9451
11914.578125 70.947 9.1937
12000.916016 70.653 10.3330
12087.879883 70.347 11.4197
12175.473633 70.026 12.5236
12263.702148 69.691 13.7256
12352.570312 69.343 15.1082
12442.082031 68.979 16.7064
12532.242188 68.602 18.5293
12623.055664 68.220 20.6003
12714.527344 67.838 22.9581
12806.662109 67.463 25.5908
12899.464844 67.106 28.4345
12992.939453 66.778 31.4314
13087.091797 66.497 34.5062
13181.925781 66.273 37.4875
13277.447266 66.115 39.9452
13373.661133 66.029 40.9538
13470.572266 66.001 38.7155
13568.185547 65.978 30.1285
13666.505859 65.895 10.1808
13765.539062 65.778 -31.3896
13865.290039 65.701 -118.2590
13965.763672 65.693 155.6004
14066.965820 65.759 86.5083
14168.900391 65.899 15.1229
14271.574219 66.114 -57.5646
14374.992188 66.396 -129.8166
14479.159180 66.736 154.5132
14584.081055 67.127 76.1461
14689.763672 67.562 -1.1101
14796.211914 68.035 -78.5950
14903.431641 68.547 -159.7463
15011.427734 69.108 117.9504
15120.207031 69.728 34.5734
15229.774414 70.418 -53.3041
15340.135742 71.183 -140.1941
15451.296875 72.017 131.6984
15563.263672 72.904 41.9231
15676.041016 73.812 -49.7323
15789.635742 74.688 -150.3927
15904.053711 75.471 118.1217
16019.300781 76.108 31.5643
16135.382812 76.568 -73.4492
16252.306641 76.817 159.8433
16370.077148 76.815 70.2249
16488.701172 76.555 -27.8584
16608.185547 76.081 -142.6909
16728.535156 75.456 93.2522
16849.757812 74.748 4.9062
16971.857422 74.024 -92.8035
17094.841797 73.350 124.1973
17218.718750 72.756 35.2974
17343.492188 72.241 -94.2839
17469.169922 71.785 145.4170
17595.757812 71.348 57.8687
17723.263672 70.883 -97.0547
17851.693359 70.370 150.4653
17981.054688 69.799 67.8264
18111.353516 69.164 -112.6514
18242.595703 68.460 166.2957
18374.789062 67.689 22.4995
18507.939453 66.854 -133.8162
18642.054688 65.925 157.9338
18777.142578 64.809 177.7629
18913.208984 63.308 174.8960
19050.261719 61.150 155.0601
19188.308594 58.206 143.6702
19327.355469 54.556 138.0647
19467.410156 50.370 135.1050
19608.478516 45.829 133.3838
19750.570312 41.154 132.3000
19893.691406 36.744 131.5835
20037.849609 0.000 131.1208
