* Measurement data measured by REW V5.20 Beta 37
* Source: IEC-711 (3- USB Sound Device        ), MICROPHONE (Master Volume), R, volume: 0.530
* Format: 1M Log Swept Sine, 1 sweep With no timing reference
* Dated: Feb 17, 2020 7:22:13 PM
* REW Settings:
*  C-weighting compensation: Off
*  Target level: 75.0 dB
* Note: ; 
* Measurement: Galaxy Buds+ Clear
* Smoothing: 1/48 octave
* Frequency Step: 1/24 octave
* Start Frequency: 20.000 Hz
*
* Freq(Hz)	SPL(dB)	Phase(degrees)
20.000000	78.617622	34.7588
20.600000	78.606781	33.9163
21.200001	78.622673	33.4892
21.799999	78.651421	32.7292
22.400000	78.622643	31.7861
23.000000	78.574913	31.0405
23.600000	78.561455	30.2428
24.299999	78.524597	28.9091
25.000000	78.414688	27.8293
25.799999	78.355209	27.3149
26.500000	78.394730	26.5594
27.200001	78.388580	25.4047
28.000000	78.316597	24.4982
29.000000	78.286743	23.7573
30.000000	78.202614	22.7779
30.700001	78.117218	22.6270
31.500000	78.103607	22.3707
32.500000	77.972450	21.3592
33.500000	77.838097	21.2204
34.500000	77.697784	19.7699
35.500000	77.428612	20.1717
36.500000	77.623245	18.6725
37.500000	77.010963	16.6933
38.700001	77.460747	22.6312
40.000000	77.909882	15.0343
41.200001	77.109741	17.0069
42.500000	77.132774	18.4994
43.700001	76.705544	20.8026
45.000000	76.543640	22.7502
46.200001	76.353287	22.8844
47.500000	76.135941	21.4012
48.700001	75.822090	20.2105
50.000000	75.897644	20.3663
51.500000	75.799675	18.2826
53.000000	75.648659	20.3067
54.500000	75.374306	20.9162
56.000000	75.149490	23.9798
58.000000	74.981812	22.8162
60.000000	74.702873	22.5359
61.500000	74.687431	23.1442
63.000000	74.573471	23.4286
65.000000	74.432404	24.4060
67.000000	74.323875	26.0625
69.000000	74.095650	26.3405
71.000000	73.901619	27.2112
73.000000	73.628716	29.2790
75.000000	73.534721	29.6671
77.500000	73.332886	30.9067
80.000000	73.058922	33.7349
82.500000	73.002060	34.0793
85.000000	72.729073	35.0518
87.500000	72.496910	37.2794
90.000000	72.312073	39.6932
92.500000	72.110207	41.2128
95.000000	71.899834	42.9725
97.500000	71.837364	44.9191
100.000000	71.569336	47.2171
103.000000	71.380234	49.0592
106.000000	71.288887	51.5979
109.000000	71.082581	53.8740
112.000000	70.939728	55.7252
115.000000	70.790833	57.7383
118.000000	70.608711	60.1605
122.000000	70.420288	63.7236
125.000000	70.270599	65.3062
128.000000	70.262070	67.3495
132.000000	70.074120	70.1237
136.000000	69.896606	73.4385
140.000000	69.748291	75.8785
145.000000	69.592079	79.8315
150.000000	69.454712	83.9656
155.000000	69.304466	86.6908
160.000000	69.024651	90.8992
165.000000	69.022934	94.0728
170.000000	69.033157	97.5310
175.000000	68.705933	101.6313
180.000000	68.607979	105.1372
185.000000	68.611000	108.1822
190.000000	68.499695	111.3589
195.000000	68.357986	115.4068
200.000000	68.226364	117.8895
206.000000	68.121361	122.6755
212.000000	68.097610	127.2107
218.000000	68.043274	131.2355
224.000000	67.914795	135.4350
230.000000	67.796776	139.6276
236.000000	67.772385	143.8804
243.000000	67.883995	148.6802
250.000000	67.860611	153.5660
258.000000	67.934509	157.6312
265.000000	67.900574	160.9160
272.000000	67.868805	165.5977
280.000000	67.810089	169.9216
290.000000	67.903671	175.1628
300.000000	67.967850	-179.6918
307.000000	67.684822	-175.4727
315.000000	67.630363	-170.2894
325.000000	67.569542	-165.4358
335.000000	67.511154	-160.0130
345.000000	67.383453	-153.9986
355.000000	67.466789	-148.4147
365.000000	67.451012	-143.6685
375.000000	67.387161	-138.4168
387.000000	67.338303	-131.5652
400.000000	67.277489	-125.9250
412.000000	67.199150	-119.4413
425.000000	67.225800	-112.6051
437.000000	67.200035	-107.0322
450.000000	67.224411	-100.5638
462.000000	67.146851	-94.4537
475.000000	67.111107	-88.2325
487.000000	67.158188	-82.6783
500.000000	67.097435	-76.5066
515.000000	67.049362	-69.2148
530.000000	67.083923	-62.1776
545.000000	66.988594	-55.4737
560.000000	66.875946	-48.6053
580.000000	66.941292	-39.5605
600.000000	66.807808	-30.7765
615.000000	66.859535	-24.2078
630.000000	66.862762	-17.2477
650.000000	66.933586	-8.4017
670.000000	66.793190	0.2576
690.000000	66.829918	8.9683
710.000000	66.815262	17.5744
730.000000	66.862122	26.2881
750.000000	66.884293	34.7136
775.000000	66.856964	44.5687
800.000000	66.835907	54.7118
825.000000	66.865250	65.2203
850.000000	66.933914	75.3011
875.000000	66.990143	85.8652
900.000000	67.008270	95.4605
925.000000	67.095016	105.6093
950.000000	67.210678	116.2347
975.000000	67.398384	125.7318
1000.000000	67.742577	135.6482
1030.000000	67.795364	146.6097
1060.000000	68.159645	157.6025
1090.000000	68.487579	168.4921
1120.000000	68.835320	178.3282
1150.000000	69.111900	-172.3836
1180.000000	69.382721	-163.7596
1220.000000	69.610222	-152.1363
1250.000000	69.799988	-142.9438
1280.000000	69.944061	-133.7591
1320.000000	70.229774	-122.4169
1360.000000	70.480583	-110.9120
1400.000000	70.715454	-99.8350
1450.000000	71.023819	-86.3376
1500.000000	71.275604	-73.6371
1550.000000	71.484741	-60.5070
1600.000000	71.720543	-47.9384
1650.000000	71.998405	-35.7572
1700.000000	72.120209	-23.4147
1750.000000	72.379883	-11.5712
1800.000000	72.599434	0.0254
1850.000000	72.823776	11.2369
1900.000000	73.030540	22.4071
1950.000000	73.280869	32.7504
2000.000000	73.605598	43.2148
2060.000000	73.771469	55.3557
2120.000000	73.994942	67.0593
2180.000000	74.205872	78.0287
2240.000000	74.428841	88.8262
2300.000000	74.571701	98.9832
2360.000000	74.646339	109.0590
2430.000000	74.602371	120.3417
2500.000000	74.481476	131.6418
2580.000000	74.218430	144.9353
2650.000000	73.858711	157.6696
2720.000000	73.601776	171.3652
2800.000000	73.554443	-171.6155
2900.000000	73.986572	-151.0459
3000.000000	74.681068	-133.6970
3070.000000	75.153992	-123.6002
3150.000000	75.567947	-113.1685
3250.000000	75.955444	-101.2543
3350.000000	76.020065	-89.5522
3450.000000	76.095428	-77.8887
3550.000000	76.088989	-66.3074
3650.000000	76.022903	-54.6892
3750.000000	75.990776	-43.1071
3870.000000	75.950027	-29.4032
4000.000000	76.023613	-15.3793
4120.000000	75.952148	-3.5201
4250.000000	75.881271	8.6637
4370.000000	75.752472	19.1825
4500.000000	75.292442	29.6438
4620.000000	74.645035	40.0332
4750.000000	73.829208	53.7380
4870.000000	73.341324	69.0786
5000.000000	73.220337	85.6021
5150.000000	73.632668	101.5612
5300.000000	73.975128	115.0720
5450.000000	74.213356	127.2225
5600.000000	74.364059	138.8702
5800.000000	74.702148	153.7441
6000.000000	75.165916	168.3263
6150.000000	75.641632	178.0339
6300.000000	76.220802	-173.2345
6500.000000	77.101463	-163.6425
6700.000000	78.055740	-156.8770
6900.000000	79.068054	-155.2584
7100.000000	79.968010	-157.0173
7300.000000	80.446579	-162.7789
7500.000000	80.222946	-170.6823
7750.000000	78.744453	178.4800
8000.000000	76.741615	173.0623
8250.000000	74.597534	169.8469
8500.000000	72.513840	168.8317
8750.000000	70.440826	167.4121
9000.000000	68.262482	167.1482
9250.000000	65.767891	167.1006
9500.000000	63.087322	169.0469
9750.000000	60.101910	175.4596
10000.000000	57.269482	-171.1752
10300.000000	55.554790	-147.2235
10600.000000	56.256332	-130.4608
10900.000000	57.766483	-123.0117
11200.000000	58.808292	-121.1914
11500.000000	59.715561	-123.2131
11800.000000	60.231155	-128.0991
12200.000000	61.438141	-135.5403
12500.000000	62.475697	-144.4780
12800.000000	63.703293	-157.9568
13200.000000	65.103256	177.7883
13600.000000	65.775284	148.8093
14000.000000	66.052063	115.7563
14500.000000	65.858269	72.7223
15000.000000	64.044434	24.1975
15500.000000	62.191849	-11.8934
16000.000000	62.080452	-48.7239
16500.000000	62.394714	-94.8239
17000.000000	62.724960	-150.3752
17500.000000	61.965904	139.3851
18000.000000	57.768219	64.1871
18500.000000	51.182186	20.1426
19000.000000	49.852364	-13.4911
19500.000000	49.335617	-78.5884
