* Measurement data measured by REW V5.20
* Source: Headset (USB-C to 3.5mm Headphone Jack Adapter), MICROPHONE (Master Volume), R, volume: 0.260
* Format: 256k Log Swept Sine, 1 sweep at -6.0 dBFS with no timing reference
* Dated: Aug 12, 2021 3:21:02 PM
* REW Settings:
*  C-weighting compensation: Off
*  Target level: 75.0 dB
* Note: ; 
* Measurement: GL12 Filter R
* Smoothing: 1/48 octave
* Frequency Step: 1/24 octave
* Start Frequency: 20.600 Hz
*
* Freq(Hz)	SPL(dB)	Phase(degrees)
20.600000	81.775795	-125.9026
21.200001	81.894806	-127.2105
21.799999	81.978409	-128.6537
22.400000	82.009918	-129.8441
23.000000	82.024681	-130.5061
23.600000	82.076797	-130.9206
24.299999	82.176758	-131.8311
25.000000	82.237450	-133.4901
25.799999	82.214035	-135.4622
26.500000	82.204651	-136.4497
27.200001	82.280319	-137.0402
28.000000	82.359421	-138.0894
29.000000	82.281250	-139.5175
30.000000	82.248741	-140.5548
30.700001	82.306175	-141.4570
31.500000	82.369370	-142.4261
32.500000	82.373093	-143.6270
33.500000	82.239914	-144.7361
34.500000	82.236671	-145.4821
35.500000	82.344826	-146.9387
36.500000	82.344864	-147.8869
37.500000	82.348740	-148.5605
38.700001	82.297691	-149.6375
40.000000	82.355972	-150.5031
41.200001	82.365860	-151.3488
42.500000	82.403191	-152.2720
43.700001	82.386932	-153.4217
45.000000	82.381401	-154.1714
46.200001	82.407417	-155.2434
47.500000	82.345741	-156.2027
48.700001	82.336800	-156.4244
50.000000	82.288422	-158.1200
51.500000	82.309402	-158.3588
53.000000	82.385109	-158.9863
54.500000	82.366043	-159.6204
56.000000	82.373451	-160.4355
58.000000	82.343651	-161.3225
60.000000	82.335648	-162.0010
61.500000	82.339470	-162.7378
63.000000	82.340080	-163.3803
65.000000	82.360222	-164.1554
67.000000	82.333321	-164.9126
69.000000	82.332489	-165.6256
71.000000	82.324860	-166.5247
73.000000	82.321465	-166.9998
75.000000	82.307907	-167.6423
77.500000	82.329208	-168.1814
80.000000	82.294312	-169.0873
82.500000	82.269691	-169.7659
85.000000	82.269402	-170.3920
87.500000	82.257301	-171.1149
90.000000	82.184196	-171.7745
92.500000	82.233856	-172.2414
95.000000	82.216599	-172.8290
97.500000	82.191063	-173.3463
100.000000	82.204018	-173.8445
103.000000	82.183495	-174.4964
106.000000	82.171829	-175.0600
109.000000	82.169853	-175.7096
112.000000	82.169922	-176.1639
115.000000	82.146767	-176.5223
118.000000	82.190193	-177.2515
122.000000	82.171036	-177.7502
125.000000	82.109634	-178.3669
128.000000	82.104736	-178.8722
132.000000	82.097473	-179.3934
136.000000	82.081253	179.9960
140.000000	82.057693	179.4944
145.000000	82.055084	178.7303
150.000000	82.016998	178.1390
155.000000	82.022720	177.4190
160.000000	81.975021	176.9413
165.000000	81.944214	176.3055
170.000000	81.920006	175.7758
175.000000	81.897118	175.1500
180.000000	81.875366	174.6617
185.000000	81.836121	174.1560
190.000000	81.811127	173.6636
195.000000	81.778091	173.2218
200.000000	81.746399	172.7529
206.000000	81.718704	172.1744
212.000000	81.668755	171.6465
218.000000	81.627968	171.1486
224.000000	81.586113	170.7076
230.000000	81.552475	170.1619
236.000000	81.507027	169.6968
243.000000	81.448532	169.0365
250.000000	81.400711	168.6208
258.000000	81.337524	168.1171
265.000000	81.289627	167.6455
272.000000	81.234726	167.2159
280.000000	81.162941	166.6732
290.000000	81.089500	166.1045
300.000000	81.007179	165.4985
307.000000	80.936523	165.2109
315.000000	80.877510	164.7306
325.000000	80.800217	164.2370
335.000000	80.705704	163.8059
345.000000	80.628944	163.3143
355.000000	80.541969	162.9302
365.000000	80.454376	162.4648
375.000000	80.348122	162.0849
387.000000	80.252335	161.7262
400.000000	80.142944	161.2668
412.000000	80.027878	160.9443
425.000000	79.909332	160.6696
437.000000	79.802750	160.3109
450.000000	79.682762	159.9773
462.000000	79.573288	159.7928
475.000000	79.458252	159.5167
487.000000	79.345947	159.3466
500.000000	79.231911	159.1835
515.000000	79.100754	159.0378
530.000000	78.971703	158.8612
545.000000	78.824532	158.8156
560.000000	78.689377	158.8140
580.000000	78.520775	158.8022
600.000000	78.354263	158.8731
615.000000	78.218529	158.9722
630.000000	78.096344	159.0366
650.000000	77.934906	159.2761
670.000000	77.773308	159.5519
690.000000	77.618195	159.8917
710.000000	77.474060	160.2409
730.000000	77.321915	160.7154
750.000000	77.183723	161.2180
775.000000	77.029846	161.8607
800.000000	76.875549	162.6259
825.000000	76.747139	163.4445
850.000000	76.626472	164.2707
875.000000	76.528481	165.1392
900.000000	76.434387	166.0494
925.000000	76.363647	166.9237
950.000000	76.309784	167.8175
975.000000	76.271393	168.6575
1000.000000	76.245537	169.4462
1030.000000	76.224861	170.2950
1060.000000	76.222839	171.0359
1090.000000	76.222511	171.6607
1120.000000	76.220222	172.1853
1150.000000	76.221413	172.6698
1180.000000	76.216461	172.9727
1220.000000	76.207291	173.3818
1250.000000	76.185089	173.5931
1280.000000	76.154411	173.8154
1320.000000	76.109825	174.0825
1360.000000	76.052773	174.4043
1400.000000	75.981232	174.6505
1450.000000	75.889259	175.1128
1500.000000	75.778435	175.6238
1550.000000	75.666855	176.2276
1600.000000	75.548172	176.9236
1650.000000	75.411194	177.7151
1700.000000	75.271706	178.7732
1750.000000	75.127808	-179.7734
1800.000000	75.041245	-177.6554
1850.000000	75.142159	-175.3568
1900.000000	75.379631	-174.2789
1950.000000	75.541023	-174.3286
2000.000000	75.562820	-174.6173
2060.000000	75.486313	-174.6561
2120.000000	75.342102	-174.3621
2180.000000	75.096931	-173.5125
2240.000000	74.687325	-171.3808
2300.000000	74.222824	-164.7254
2360.000000	75.309669	-152.2346
2430.000000	77.899231	-156.9813
2500.000000	78.155792	-167.0491
2580.000000	77.879456	-172.4265
2650.000000	77.588928	-175.2734
2720.000000	77.303886	-176.6519
2800.000000	77.119919	-178.0351
2900.000000	76.792976	179.9384
3000.000000	76.339119	178.5299
3070.000000	75.949921	178.3222
3150.000000	75.549004	179.6335
3250.000000	75.489395	-179.6740
3350.000000	75.002869	179.5270
3450.000000	74.122314	-178.3189
3550.000000	74.067139	-164.2128
3650.000000	76.301949	-169.0526
3750.000000	75.995605	-175.1377
3870.000000	75.639481	-179.0347
4000.000000	75.118805	178.9604
4120.000000	74.710236	177.3500
4250.000000	74.072083	174.8911
4370.000000	73.643723	173.8567
4500.000000	72.415001	166.4161
4620.000000	68.597206	170.6857
4750.000000	68.602043	-165.3597
4870.000000	69.323936	-154.1088
5000.000000	70.782532	-153.2857
5150.000000	70.662811	-148.6486
5300.000000	71.531723	-151.4402
5450.000000	70.928535	-148.4236
5600.000000	71.206253	-145.3390
5800.000000	71.564232	-143.5418
6000.000000	71.725731	-146.4930
6150.000000	71.062759	-148.7262
6300.000000	69.436195	-147.1485
6500.000000	68.492340	-132.4049
6700.000000	68.991745	-117.7166
6900.000000	71.045937	-108.4689
7100.000000	71.519302	-113.4325
7300.000000	72.254059	-103.0224
7500.000000	73.932556	-103.9805
7750.000000	74.003403	-108.2791
8000.000000	75.490158	-110.8243
8250.000000	74.615959	-99.9568
8500.000000	79.140617	-97.3119
8750.000000	81.290710	-126.5970
9000.000000	79.308098	-137.2424
9250.000000	80.083389	-143.8919
9500.000000	80.344406	-163.7729
9750.000000	77.023247	-175.1629
10000.000000	76.354424	-169.8098
10300.000000	76.235367	-173.1422
10600.000000	76.514595	-177.1991
10900.000000	76.382690	164.5228
11200.000000	73.565086	150.5788
11500.000000	68.915611	163.2822
11800.000000	71.093910	-166.0122
12200.000000	74.717255	-174.5829
12500.000000	76.631668	-179.1549
12800.000000	79.883804	164.1950
13200.000000	80.886597	118.0852
13600.000000	76.151474	88.9248
14000.000000	75.652969	74.5594
14500.000000	71.456932	37.8639
15000.000000	66.975075	48.3826
15500.000000	65.935295	32.6644
16000.000000	66.394684	20.3006
16500.000000	65.883553	-9.6202
17000.000000	65.664726	-37.3882
17500.000000	66.830017	-75.1559
18000.000000	68.013298	-124.2776
18500.000000	69.574417	174.5720
19000.000000	70.250221	93.7854
19500.000000	68.951042	-1.6559
