* Measurement data measured by REW V5.20
* Source: Headset (USB-C to 3.5mm Headphone Jack Adapter), MICROPHONE (Master Volume), R, volume: 0.260
* Format: 256k Log Swept Sine, 1 sweep at -6.0 dBFS with no timing reference
* Dated: Aug 12, 2021 3:22:30 PM
* REW Settings:
*  C-weighting compensation: Off
*  Target level: 75.0 dB
* Note: ; 
* Measurement: GL12 Filter L
* Smoothing: 1/48 octave
* Frequency Step: 1/24 octave
* Start Frequency: 20.600 Hz
*
* Freq(Hz)	SPL(dB)	Phase(degrees)
20.600000	81.703415	-115.5520
21.200001	81.796593	-117.1584
21.799999	81.849327	-118.6041
22.400000	81.901558	-119.9591
23.000000	81.949615	-121.3283
23.600000	81.982941	-122.6306
24.299999	82.026062	-123.9474
25.000000	82.091682	-125.1740
25.799999	82.152252	-126.5888
26.500000	82.174072	-127.7065
27.200001	82.197815	-128.7917
28.000000	82.239655	-130.2549
29.000000	82.286346	-132.1085
30.000000	82.326180	-133.6234
30.700001	82.321251	-134.6435
31.500000	82.293846	-135.7492
32.500000	82.317329	-137.1960
33.500000	82.348907	-138.6109
34.500000	82.362221	-139.4680
35.500000	82.371597	-140.6146
36.500000	82.345436	-141.8903
37.500000	82.379631	-143.0397
38.700001	82.356796	-144.3406
40.000000	82.390961	-145.2572
41.200001	82.427917	-146.5564
42.500000	82.434669	-147.5289
43.700001	82.407417	-148.7069
45.000000	82.428238	-149.5602
46.200001	82.472504	-150.3911
47.500000	82.452271	-151.6796
48.700001	82.407532	-152.6423
50.000000	82.439720	-153.3453
51.500000	82.436615	-154.4058
53.000000	82.435257	-155.3486
54.500000	82.441208	-156.1949
56.000000	82.449249	-157.0096
58.000000	82.420013	-157.9666
60.000000	82.443527	-159.2598
61.500000	82.443176	-160.0371
63.000000	82.428871	-160.6991
65.000000	82.415741	-161.6003
67.000000	82.411896	-162.4102
69.000000	82.419670	-163.2439
71.000000	82.407936	-164.0726
73.000000	82.397827	-164.8154
75.000000	82.399834	-165.5858
77.500000	82.380585	-166.1328
80.000000	82.381691	-167.3062
82.500000	82.350784	-168.1324
85.000000	82.347206	-168.8499
87.500000	82.328163	-169.6369
90.000000	82.312149	-170.2878
92.500000	82.304680	-170.8714
95.000000	82.286072	-171.6078
97.500000	82.286003	-172.1807
100.000000	82.267929	-172.8929
103.000000	82.258499	-173.6424
106.000000	82.243713	-174.2957
109.000000	82.228226	-174.9902
112.000000	82.224022	-175.5564
115.000000	82.193001	-176.1078
118.000000	82.174675	-176.3659
122.000000	82.156204	-177.3690
125.000000	82.155220	-178.1511
128.000000	82.139145	-178.6174
132.000000	82.150742	-179.3143
136.000000	82.124931	-179.9525
140.000000	82.107056	179.4122
145.000000	82.080864	178.5622
150.000000	82.055328	177.7907
155.000000	82.045128	177.1683
160.000000	81.996574	176.4334
165.000000	81.970795	175.7636
170.000000	81.946480	175.1649
175.000000	81.897598	174.5687
180.000000	81.882690	173.8899
185.000000	81.849701	173.3499
190.000000	81.803238	172.7237
195.000000	81.765549	172.1874
200.000000	81.729912	171.7581
206.000000	81.688904	171.0704
212.000000	81.654350	170.4700
218.000000	81.594406	169.9071
224.000000	81.552353	169.3554
230.000000	81.500450	168.8078
236.000000	81.442642	168.2686
243.000000	81.388977	167.7646
250.000000	81.337212	167.0822
258.000000	81.270493	166.4472
265.000000	81.212524	165.9550
272.000000	81.149292	165.4241
280.000000	81.074219	164.8580
290.000000	80.983955	164.2001
300.000000	80.881783	163.5905
307.000000	80.828835	163.0438
315.000000	80.758209	162.6956
325.000000	80.667053	162.1248
335.000000	80.574394	161.6130
345.000000	80.474815	161.0905
355.000000	80.380302	160.6124
365.000000	80.272659	160.1193
375.000000	80.189598	159.7654
387.000000	80.071976	159.2706
400.000000	79.946953	158.8491
412.000000	79.829300	158.3852
425.000000	79.710022	158.0842
437.000000	79.583801	157.7019
450.000000	79.462456	157.3660
462.000000	79.344643	157.0842
475.000000	79.224953	156.8066
487.000000	79.106468	156.5769
500.000000	78.983269	156.3838
515.000000	78.834595	156.2029
530.000000	78.696754	156.0408
545.000000	78.553329	155.8759
560.000000	78.423134	155.8475
580.000000	78.236549	155.7706
600.000000	78.060097	155.7947
615.000000	77.925827	155.8294
630.000000	77.794121	155.9445
650.000000	77.627167	156.1131
670.000000	77.462234	156.3354
690.000000	77.300438	156.6227
710.000000	77.145546	156.9892
730.000000	76.998108	157.3578
750.000000	76.856247	157.8272
775.000000	76.694656	158.4505
800.000000	76.541626	159.1689
825.000000	76.401390	159.9095
850.000000	76.280815	160.6868
875.000000	76.176071	161.5285
900.000000	76.082146	162.3637
925.000000	76.012512	163.2271
950.000000	75.958359	164.0402
975.000000	75.916550	164.8387
1000.000000	75.890961	165.5959
1030.000000	75.875603	166.4023
1060.000000	75.868652	167.1039
1090.000000	75.873093	167.6934
1120.000000	75.882538	168.2016
1150.000000	75.888062	168.5982
1180.000000	75.894333	168.8941
1220.000000	75.891106	169.1953
1250.000000	75.882156	169.3694
1280.000000	75.867081	169.5409
1320.000000	75.837814	169.7261
1360.000000	75.800705	169.9231
1400.000000	75.756546	170.1183
1450.000000	75.691040	170.4138
1500.000000	75.633827	170.7961
1550.000000	75.579758	171.2072
1600.000000	75.537209	171.6086
1650.000000	75.486977	171.9910
1700.000000	75.442291	172.4554
1750.000000	75.409012	172.9072
1800.000000	75.380836	173.3914
1850.000000	75.367073	173.8607
1900.000000	75.361343	174.3118
1950.000000	75.367302	174.7538
2000.000000	75.385178	175.1286
2060.000000	75.414284	175.5914
2120.000000	75.471268	175.9360
2180.000000	75.544365	176.1321
2240.000000	75.635063	176.1856
2300.000000	75.745430	176.0568
2360.000000	75.868408	175.6324
2430.000000	76.033997	174.7726
2500.000000	76.229218	173.1478
2580.000000	76.367912	169.2348
2650.000000	75.894157	165.3282
2720.000000	75.458061	166.9985
2800.000000	75.914787	166.8622
2900.000000	76.583679	155.6461
3000.000000	73.073494	139.9046
3070.000000	71.008530	155.6298
3150.000000	71.302696	165.7029
3250.000000	71.672462	169.8519
3350.000000	71.779175	171.2971
3450.000000	71.681061	171.8778
3550.000000	71.341301	172.3401
3650.000000	70.669113	175.2514
3750.000000	70.784584	-176.1425
3870.000000	71.786476	-176.4459
4000.000000	71.763504	-179.1972
4120.000000	71.506134	179.9759
4250.000000	71.190430	179.6467
4370.000000	70.848763	179.6006
4500.000000	70.234390	179.8287
4620.000000	69.791794	-177.2014
4750.000000	69.533707	-174.9306
4870.000000	69.281311	-173.0260
5000.000000	69.013878	-170.9486
5150.000000	68.732536	-168.1979
5300.000000	68.615234	-166.1472
5450.000000	68.510262	-166.4379
5600.000000	67.365013	-169.1913
5800.000000	65.881851	-161.3074
6000.000000	64.759796	-145.7730
6150.000000	64.735733	-136.3202
6300.000000	65.347397	-123.3834
6500.000000	66.569923	-119.1784
6700.000000	67.523270	-113.2375
6900.000000	67.518852	-102.1837
7100.000000	70.318596	-103.4947
7300.000000	70.708679	-107.1861
7500.000000	70.518875	-105.3045
7750.000000	71.666687	-95.5537
8000.000000	74.071472	-97.7141
8250.000000	75.856377	-105.3744
8500.000000	77.033195	-117.0803
8750.000000	77.508858	-132.7293
9000.000000	76.863876	-146.4688
9250.000000	75.597595	-158.0117
9500.000000	73.711166	-160.8671
9750.000000	73.098862	-160.6957
10000.000000	72.295479	-161.8597
10300.000000	71.944504	-161.2215
10600.000000	71.611290	-163.8350
10900.000000	70.990654	-162.8685
11200.000000	70.438881	-159.4707
11500.000000	72.184425	-152.4262
11800.000000	73.759995	-156.6678
12200.000000	76.069038	-167.7665
12500.000000	77.556000	177.4538
12800.000000	78.651718	157.9100
13200.000000	78.379654	125.1346
13600.000000	75.943909	100.5311
14000.000000	73.819977	83.0286
14500.000000	71.328918	65.0905
15000.000000	69.447449	43.7209
15500.000000	66.104057	31.7033
16000.000000	66.328117	15.4270
16500.000000	65.793289	-9.9554
17000.000000	65.584389	-36.7410
17500.000000	66.795967	-67.4392
18000.000000	69.766281	-116.4894
18500.000000	71.789497	176.9330
19000.000000	72.699165	88.9229
19500.000000	70.286049	-12.8614
