* Measurement data measured by REW V5.20 Beta 22
* Source: Microphone (2- USB Sound Device        ), MICROPHONE (Master Volume), R, volume: 0.557
* Format: 1M Log Swept Sine, 1 sweep at 0.0 dBFS  Using a loopback as a timing reference
* Dated: Sep 7, 2019 9:37:38 PM
* REW Settings:
*  C-weighting compensation: Off
*  Target level: 75.0 dB
* Note: ; Delay -0.000 ms (-0 mm, -0 in)  relative to Loopback with no timing offset
* Measurement: KB Ear Hi7 - R
* Smoothing: 1/48 octave
* Frequency Step: 1/24 octave
* Start Frequency: 20.000 Hz
*
* Freq(Hz)	SPL(dB)	Phase(degrees)
20.000000	86.836372	-159.9757
20.600000	86.846550	-159.9353
21.200001	86.817741	-159.7512
21.799999	86.776443	-159.5764
22.400000	86.727707	-159.5293
23.000000	86.669640	-159.6072
23.600000	86.607483	-159.7377
24.299999	86.545967	-159.8910
25.000000	86.505974	-160.0564
25.799999	86.476639	-160.2535
26.500000	86.456100	-160.3528
27.200001	86.439720	-160.3551
28.000000	86.418365	-160.2726
29.000000	86.377098	-160.0384
30.000000	86.325363	-159.7514
30.700001	86.279694	-159.5744
31.500000	86.224045	-159.3849
32.500000	86.159035	-159.2358
33.500000	86.094009	-159.1326
34.500000	86.042526	-158.9867
35.500000	86.001480	-158.8146
36.500000	85.963837	-158.5736
37.500000	85.921295	-158.2904
38.700001	85.856239	-157.8468
40.000000	85.786629	-157.3441
41.200001	85.717361	-156.9659
42.500000	85.640472	-156.5760
43.700001	85.576935	-156.1898
45.000000	85.518433	-155.7323
46.200001	85.463676	-155.2627
47.500000	85.405838	-154.7025
48.700001	85.345169	-154.1926
50.000000	85.277168	-153.6259
51.500000	85.201027	-152.9700
53.000000	85.132492	-152.3498
54.500000	85.062569	-151.6800
56.000000	84.993744	-150.9719
58.000000	84.907410	-149.9981
60.000000	84.813293	-148.9834
61.500000	84.760208	-148.2529
63.000000	84.700813	-147.5240
65.000000	84.624992	-146.5137
67.000000	84.551437	-145.5258
69.000000	84.477036	-144.5076
71.000000	84.402557	-143.4596
73.000000	84.335777	-142.4816
75.000000	84.260323	-141.4862
77.500000	84.182739	-140.2054
80.000000	84.104050	-138.8768
82.500000	84.031273	-137.5000
85.000000	83.959198	-136.3173
87.500000	83.868919	-135.0153
90.000000	83.814240	-133.7181
92.500000	83.733284	-132.4659
95.000000	83.645287	-131.1621
97.500000	83.570061	-130.0054
100.000000	83.502411	-128.6623
103.000000	83.418098	-127.0975
106.000000	83.330734	-125.5911
109.000000	83.249611	-124.0809
112.000000	83.171799	-122.5112
115.000000	83.082527	-120.9459
118.000000	82.998070	-119.4384
122.000000	82.895721	-117.3321
125.000000	82.814232	-115.7858
128.000000	82.735718	-114.2120
132.000000	82.635582	-112.1329
136.000000	82.529877	-110.0418
140.000000	82.438156	-107.9325
145.000000	82.316963	-105.2975
150.000000	82.208435	-102.6804
155.000000	82.099564	-100.0550
160.000000	81.996094	-97.4323
165.000000	81.898514	-94.8112
170.000000	81.803635	-92.2048
175.000000	81.708946	-89.6051
180.000000	81.617500	-86.9936
185.000000	81.534164	-84.4143
190.000000	81.451836	-81.8167
195.000000	81.371323	-79.2617
200.000000	81.297653	-76.7102
206.000000	81.204483	-73.6261
212.000000	81.126099	-70.6265
218.000000	81.046242	-67.5900
224.000000	80.971283	-64.6038
230.000000	80.898544	-61.6586
236.000000	80.823601	-58.6692
243.000000	80.746864	-55.2369
250.000000	80.669510	-51.8216
258.000000	80.587112	-47.9589
265.000000	80.520378	-44.5394
272.000000	80.454613	-41.1333
280.000000	80.384453	-37.2895
290.000000	80.309967	-32.4195
300.000000	80.255043	-27.5934
307.000000	80.229370	-24.1868
315.000000	80.226082	-20.4049
325.000000	80.250061	-15.9556
335.000000	80.244827	-11.7806
345.000000	80.220932	-7.7173
355.000000	80.180733	-3.6402
365.000000	80.146339	0.4556
375.000000	80.102989	4.5615
387.000000	80.061958	9.4310
400.000000	80.025574	14.6514
412.000000	79.996132	19.4559
425.000000	79.972878	24.5846
437.000000	79.945084	29.2306
450.000000	79.926231	34.1921
462.000000	79.908585	38.7128
475.000000	79.889114	43.5097
487.000000	79.872162	47.8945
500.000000	79.842445	52.5651
515.000000	79.801788	57.9482
530.000000	79.754913	63.3077
545.000000	79.707466	68.7929
560.000000	79.682045	74.2645
580.000000	79.671913	81.4817
600.000000	79.682961	88.5358
615.000000	79.693588	93.7568
630.000000	79.706863	98.8462
650.000000	79.740005	105.5662
670.000000	79.771156	112.1568
690.000000	79.806595	118.6930
710.000000	79.846634	125.1109
730.000000	79.887093	131.4430
750.000000	79.936691	137.7280
775.000000	80.006073	145.4236
800.000000	80.083084	153.0643
825.000000	80.169739	160.5997
850.000000	80.268089	168.0348
875.000000	80.376945	175.3926
900.000000	80.505920	-177.3301
925.000000	80.653687	-170.1321
950.000000	80.815773	-163.0763
975.000000	81.001427	-156.1353
1000.000000	81.202950	-149.3153
1030.000000	81.490547	-141.3706
1060.000000	81.797653	-133.7164
1090.000000	82.129578	-126.3818
1120.000000	82.484627	-119.3785
1150.000000	82.844215	-112.7458
1180.000000	83.209503	-106.4502
1220.000000	83.694122	-98.5914
1250.000000	84.042847	-93.0157
1280.000000	84.382904	-87.6973
1320.000000	84.814758	-80.9641
1360.000000	85.226265	-74.5628
1400.000000	85.617081	-68.4650
1450.000000	86.086792	-61.2041
1500.000000	86.536522	-54.3033
1550.000000	86.979340	-47.7947
1600.000000	87.412582	-41.6429
1650.000000	87.837593	-35.9153
1700.000000	88.257614	-30.5963
1750.000000	88.659470	-25.7090
1800.000000	89.042442	-21.2578
1850.000000	89.403603	-17.2487
1900.000000	89.728798	-13.6377
1950.000000	90.015213	-10.4014
2000.000000	90.269356	-7.5039
2060.000000	90.485580	-4.3711
2120.000000	90.639038	-1.5103
2180.000000	90.721848	1.2220
2240.000000	90.737999	3.9360
2300.000000	90.704048	6.7168
2360.000000	90.634460	9.6515
2430.000000	90.532005	13.3304
2500.000000	90.419281	17.3112
2580.000000	90.331596	22.2470
2650.000000	90.322830	26.8542
2720.000000	90.416275	31.6242
2800.000000	90.706131	36.8732
2900.000000	91.355782	41.8348
3000.000000	92.089951	43.6098
3070.000000	92.479416	43.2957
3150.000000	92.780655	42.3403
3250.000000	93.041031	40.8726
3350.000000	93.309914	38.7078
3450.000000	93.547165	34.9096
3550.000000	93.602219	29.1824
3650.000000	93.320694	22.0464
3750.000000	92.576569	14.8174
3870.000000	91.183777	8.1892
4000.000000	89.385742	5.1798
4120.000000	87.817825	6.1357
4250.000000	86.492287	9.8597
4370.000000	85.713135	14.0966
4500.000000	85.257622	18.0183
4620.000000	85.085381	20.4141
4750.000000	85.043892	21.5784
4870.000000	85.075432	21.5392
5000.000000	85.137848	20.4701
5150.000000	85.252556	18.1656
5300.000000	85.397812	14.8525
5450.000000	85.585800	10.6448
5600.000000	85.801033	5.5322
5800.000000	86.144348	-2.6919
6000.000000	86.543808	-12.4250
6150.000000	86.880280	-20.6848
6300.000000	87.265343	-29.8095
6500.000000	87.833664	-43.4738
6700.000000	88.485947	-59.0609
6900.000000	89.201576	-76.8543
7100.000000	89.966026	-97.2429
7300.000000	90.746567	-120.8612
7500.000000	91.401840	-148.9034
7750.000000	91.245316	168.1602
8000.000000	89.252106	125.3255
8250.000000	85.769707	94.4537
8500.000000	83.504700	77.3875
8750.000000	83.587959	55.2175
9000.000000	83.290543	20.4340
9250.000000	81.749550	-14.2619
9500.000000	79.910011	-44.3275
9750.000000	78.327591	-71.2329
10000.000000	77.205612	-96.9035
10300.000000	76.551300	-128.4781
10600.000000	76.484154	-163.9498
10900.000000	76.443405	155.5089
11200.000000	76.183632	112.7350
11500.000000	75.784508	67.9128
11800.000000	75.159607	21.2756
12200.000000	73.638008	-40.5283
12500.000000	72.408203	-81.8278
12800.000000	72.167564	-120.0266
13200.000000	73.661133	-178.2915
13600.000000	75.341965	108.4539
14000.000000	75.912056	27.2795
14500.000000	75.616638	-75.0200
15000.000000	75.600212	-178.3188
15500.000000	74.729050	72.3782
16000.000000	73.787003	-38.1958
16500.000000	72.280899	-150.7820
17000.000000	70.443504	98.6873
17500.000000	69.093880	-8.5802
18000.000000	69.802124	-118.2816
18500.000000	71.274010	109.7960
19000.000000	71.673065	-45.0133
19500.000000	67.396217	156.8167
