* Measurement data measured by REW V5.20 Beta 59
* Source: Headset (USB-C to 3.5mm Headphone Jack Adapter), MICROPHONE (Master Volume), R, volume: 0.169
* Format: 512k Log Swept Sine, 1 sweep at -6.0 dBFS with no timing reference
* Dated: Oct 19, 2020 9:49:34 PM
* REW Settings:
*  C-weighting compensation: Off
*  Target level: 75.0 dB
* Note: ; 
* Measurement: MMR Homunculus - L
* Smoothing: 1/48 octave
* Frequency Step: 1/24 octave
* Start Frequency: 20.600 Hz
*
* Freq(Hz)	SPL(dB)	Phase(degrees)
20.600000	78.535721	-104.9956
21.200001	78.705498	-106.8148
21.799999	78.873230	-108.5930
22.400000	79.030960	-110.2332
23.000000	79.178162	-111.8504
23.600000	79.336067	-113.4216
24.299999	79.484955	-115.1528
25.000000	79.611916	-117.0459
25.799999	79.779823	-118.8057
26.500000	79.886292	-120.3928
27.200001	80.023277	-122.0477
28.000000	80.128929	-123.4921
29.000000	80.264633	-125.6838
30.000000	80.398788	-127.5343
30.700001	80.486053	-128.8712
31.500000	80.579689	-130.3177
32.500000	80.679298	-132.1201
33.500000	80.778938	-133.7680
34.500000	80.864304	-135.3878
35.500000	80.939972	-136.8720
36.500000	81.022858	-138.3523
37.500000	81.084946	-139.8360
38.700001	81.153442	-141.4082
40.000000	81.216072	-143.0855
41.200001	81.280624	-144.6205
42.500000	81.330429	-146.1433
43.700001	81.382240	-147.5540
45.000000	81.424171	-148.9569
46.200001	81.456207	-150.2411
47.500000	81.492676	-151.5784
48.700001	81.520119	-152.7682
50.000000	81.543686	-153.9894
51.500000	81.566658	-155.3293
53.000000	81.588486	-156.6236
54.500000	81.604034	-157.8643
56.000000	81.618523	-159.1263
58.000000	81.625717	-160.6172
60.000000	81.619606	-161.9265
61.500000	81.631088	-163.0983
63.000000	81.629150	-164.0708
65.000000	81.614685	-165.3795
67.000000	81.603355	-166.5705
69.000000	81.608849	-168.0263
71.000000	81.573082	-168.9215
73.000000	81.548119	-169.9878
75.000000	81.525772	-171.0041
77.500000	81.490334	-172.2183
80.000000	81.457298	-173.3861
82.500000	81.417206	-174.4946
85.000000	81.375542	-175.5294
87.500000	81.333321	-176.5556
90.000000	81.303787	-177.3795
92.500000	81.236931	-178.3895
95.000000	81.187584	-179.2607
97.500000	81.133369	179.9301
100.000000	81.079987	179.1200
103.000000	81.020981	178.2153
106.000000	80.952133	177.3648
109.000000	80.887421	176.5425
112.000000	80.821404	175.7824
115.000000	80.753525	175.0553
118.000000	80.684418	174.3616
122.000000	80.594231	173.4951
125.000000	80.523788	172.8862
128.000000	80.455215	172.3019
132.000000	80.362526	171.5845
136.000000	80.278694	170.7402
140.000000	80.177361	170.2729
145.000000	80.059776	169.5197
150.000000	79.946190	168.8599
155.000000	79.833038	168.2347
160.000000	79.722206	167.6876
165.000000	79.610893	167.1791
170.000000	79.502907	166.7065
175.000000	79.394478	166.2797
180.000000	79.279716	165.8837
185.000000	79.183182	165.5384
190.000000	79.079453	165.2189
195.000000	78.978767	164.9306
200.000000	78.879761	164.6711
206.000000	78.761986	164.3924
212.000000	78.647545	164.1625
218.000000	78.534332	163.9720
224.000000	78.426727	163.7899
230.000000	78.319778	163.6465
236.000000	78.216141	163.5311
243.000000	78.097237	163.4386
250.000000	77.983917	163.3520
258.000000	77.854103	163.3006
265.000000	77.747955	163.2856
272.000000	77.643127	163.3094
280.000000	77.523590	163.3495
290.000000	77.383926	163.4197
300.000000	77.250633	163.5717
307.000000	77.157425	163.6432
315.000000	77.057747	163.7863
325.000000	76.935501	163.9789
335.000000	76.824860	164.1991
345.000000	76.708778	164.4404
355.000000	76.602348	164.7206
365.000000	76.501434	164.9998
375.000000	76.404907	165.3096
387.000000	76.290192	165.6915
400.000000	76.175369	166.1386
412.000000	76.078239	166.5562
425.000000	75.975281	167.0428
437.000000	75.886368	167.4950
450.000000	75.794540	167.9965
462.000000	75.715065	168.4861
475.000000	75.636101	169.0308
487.000000	75.566765	169.5309
500.000000	75.493942	170.1000
515.000000	75.423050	170.7550
530.000000	75.353836	171.4205
545.000000	75.292419	172.0994
560.000000	75.236107	172.8052
580.000000	75.174141	173.7440
600.000000	75.122101	174.7036
615.000000	75.089836	175.4358
630.000000	75.062180	176.1562
650.000000	75.037132	177.1398
670.000000	75.021339	178.1447
690.000000	75.019714	179.1476
710.000000	75.029671	-179.8442
730.000000	75.049309	-178.8239
750.000000	75.084587	-177.8163
775.000000	75.147240	-176.5553
800.000000	75.228416	-175.2893
825.000000	75.336235	-174.0777
850.000000	75.464890	-172.8959
875.000000	75.617188	-171.7729
900.000000	75.796165	-170.7322
925.000000	75.992859	-169.7956
950.000000	76.216629	-168.9575
975.000000	76.460449	-168.2622
1000.000000	76.723907	-167.7387
1030.000000	77.059113	-167.3289
1060.000000	77.412834	-167.1814
1090.000000	77.778099	-167.3107
1120.000000	78.149887	-167.7277
1150.000000	78.523270	-168.4163
1180.000000	78.892960	-169.3576
1220.000000	79.377167	-170.9871
1250.000000	79.737564	-172.5437
1280.000000	80.077827	-174.4240
1320.000000	80.485237	-177.3450
1360.000000	80.815483	179.4210
1400.000000	81.091125	176.1805
1450.000000	81.403336	171.9214
1500.000000	81.644089	167.2589
1550.000000	81.776505	162.3882
1600.000000	81.798355	157.5403
1650.000000	81.719894	152.9247
1700.000000	81.559647	148.7028
1750.000000	81.343521	144.9456
1800.000000	81.097298	141.6749
1850.000000	80.837219	138.8792
1900.000000	80.580521	136.5112
1950.000000	80.340378	134.4901
2000.000000	80.126236	132.7512
2060.000000	79.909309	130.9538
2120.000000	79.742676	129.3361
2180.000000	79.625839	127.8165
2240.000000	79.560051	126.2973
2300.000000	79.540794	124.7098
2360.000000	79.565338	122.9485
2430.000000	79.640862	120.6206
2500.000000	79.751846	117.8902
2580.000000	79.903648	114.2053
2650.000000	80.032852	110.3723
2720.000000	80.132965	105.9361
2800.000000	80.165939	100.0732
2900.000000	79.994965	91.6891
3000.000000	79.455170	82.5939
3070.000000	78.794891	76.3867
3150.000000	77.736343	70.2571
3250.000000	76.029823	65.3309
3350.000000	74.081947	64.5254
3450.000000	72.143356	68.2237
3550.000000	70.434662	76.2737
3650.000000	69.183723	88.3136
3750.000000	68.699310	103.1455
3870.000000	69.362167	120.5744
4000.000000	71.123322	133.6258
4120.000000	72.984993	139.4141
4250.000000	74.798660	140.8412
4370.000000	76.174095	139.3709
4500.000000	77.306625	136.0543
4620.000000	78.032837	132.2716
4750.000000	78.508316	128.1510
4870.000000	78.707344	124.8353
5000.000000	78.741470	122.2112
5150.000000	78.680679	120.0325
5300.000000	78.441505	119.1694
5450.000000	78.210358	119.5007
5600.000000	78.001625	120.5640
5800.000000	77.784012	122.6486
6000.000000	77.622307	124.8452
6150.000000	77.499809	126.2218
6300.000000	77.324448	127.2775
6500.000000	76.922882	128.4406
6700.000000	76.287399	130.1082
6900.000000	75.468422	133.1761
7100.000000	74.602913	138.1383
7300.000000	73.825363	144.6165
7500.000000	73.163322	152.3018
7750.000000	72.623993	163.2794
8000.000000	72.478333	174.8448
8250.000000	72.742668	-173.8964
8500.000000	73.442894	-163.9586
8750.000000	74.500511	-156.7148
9000.000000	75.722046	-153.4319
9250.000000	76.703308	-154.6306
9500.000000	77.114380	-158.3341
9750.000000	76.842995	-161.7632
10000.000000	76.209198	-162.6409
10300.000000	75.408234	-160.9229
10600.000000	74.729942	-158.0949
10900.000000	74.127121	-155.7918
11200.000000	73.423386	-155.0121
11500.000000	72.336105	-155.4914
11800.000000	70.745575	-154.9573
12200.000000	68.356110	-149.9148
12500.000000	66.763641	-143.8567
12800.000000	65.460411	-137.3562
13200.000000	64.174988	-129.3677
13600.000000	63.388008	-123.2500
14000.000000	62.949020	-118.9962
14500.000000	62.957973	-115.1979
15000.000000	63.681644	-114.8864
15500.000000	64.672821	-122.5547
16000.000000	64.265289	-141.3721
16500.000000	61.079239	-145.7664
17000.000000	60.919609	-146.1790
17500.000000	60.782791	-159.1982
18000.000000	60.689705	179.0117
18500.000000	60.906250	143.3285
19000.000000	61.271210	86.1115
19500.000000	60.719952	1.8802
