* Measurement data measured by REW V5.20
* Source: Headset (USB-C to 3.5mm Headphone Jack Adapter), MICROPHONE (Master Volume), R, volume: 0.260. Timing signal peak level -68.0 dBFS, measurement signal peak level -32.9 dBFS
* Format: 256k Log Swept Sine, 1 sweep at -6.0 dBFS using an acoustic timing reference
* Dated: Dec 13, 2020 12:58:42 PM
* REW Settings:
*  C-weighting compensation: Off
*  Target level: 75.0 dB
* Note: ; Delay -0.0358 ms (-12 mm, -0.48 in) using estimated IR delay relative to Acoustic reference on HEADPHONE R with no timing offset
* Measurement: TA Legacy 4 - 00
* Smoothing: 1/48 octave
* Frequency Step: 1/24 octave
* Start Frequency: 20.600 Hz
*
* Freq(Hz)	SPL(dB)	Phase(degrees)
20.600000	81.142639	-136.9665
21.200001	81.350540	-139.0517
21.799999	81.504135	-140.2770
22.400000	81.575493	-141.1769
23.000000	81.583466	-142.4534
23.600000	81.559174	-144.2774
24.299999	81.560516	-146.4463
25.000000	81.651878	-148.1768
25.799999	81.757607	-150.0316
26.500000	81.738892	-151.5608
27.200001	81.709343	-152.8015
28.000000	81.775833	-154.4128
29.000000	81.821274	-156.6803
30.000000	81.789940	-158.1593
30.700001	81.797737	-159.3272
31.500000	81.789017	-160.9364
32.500000	81.762192	-162.5433
33.500000	81.748589	-163.9389
34.500000	81.725342	-165.4137
35.500000	81.702866	-166.9484
36.500000	81.652176	-168.3582
37.500000	81.601303	-169.5277
38.700001	81.566658	-170.8989
40.000000	81.525612	-172.4807
41.200001	81.471985	-173.8146
42.500000	81.430725	-175.1777
43.700001	81.346748	-176.5235
45.000000	81.272194	-177.6917
46.200001	81.213226	-178.7255
47.500000	81.132133	-179.7374
48.700001	81.056900	179.2522
50.000000	80.984444	178.3477
51.500000	80.900383	177.2822
53.000000	80.799805	176.3033
54.500000	80.713646	175.3514
56.000000	80.618347	174.4732
58.000000	80.502129	173.3761
60.000000	80.362610	172.3456
61.500000	80.280037	171.6691
63.000000	80.202866	171.0311
65.000000	80.078995	170.1717
67.000000	79.960518	169.3800
69.000000	79.831795	168.7311
71.000000	79.719749	168.0811
73.000000	79.604317	167.4421
75.000000	79.495766	166.8211
77.500000	79.358948	166.2443
80.000000	79.218437	165.6376
82.500000	79.076614	165.1615
85.000000	78.952850	164.6997
87.500000	78.902863	164.3513
90.000000	78.713806	164.0011
92.500000	78.569809	163.5982
95.000000	78.447716	163.3712
97.500000	78.341721	163.0952
100.000000	78.222961	162.8787
103.000000	78.088860	162.7059
106.000000	77.953728	162.4831
109.000000	77.832603	162.3844
112.000000	77.713684	162.2527
115.000000	77.596085	162.1718
118.000000	77.481483	162.0992
122.000000	77.334152	162.0433
125.000000	77.227608	162.0588
128.000000	77.123894	162.0851
132.000000	76.994972	162.1548
136.000000	76.864021	162.2576
140.000000	76.744194	162.3364
145.000000	76.598808	162.5313
150.000000	76.459450	162.7239
155.000000	76.316422	162.9488
160.000000	76.196808	163.2261
165.000000	76.069588	163.4945
170.000000	75.957199	163.7933
175.000000	75.843887	164.1093
180.000000	75.749329	164.3807
185.000000	75.650375	164.7983
190.000000	75.546684	165.2094
195.000000	75.454269	165.5331
200.000000	75.370728	165.9160
206.000000	75.270248	166.3098
212.000000	75.180054	166.7926
218.000000	75.085907	167.2402
224.000000	75.000351	167.7134
230.000000	74.920364	168.1882
236.000000	74.837975	168.6981
243.000000	74.759109	169.2231
250.000000	74.673752	169.7966
258.000000	74.585510	170.3853
265.000000	74.510437	170.9787
272.000000	74.446297	171.5082
280.000000	74.369873	172.1763
290.000000	74.280457	172.9863
300.000000	74.193398	173.7867
307.000000	74.141602	174.2791
315.000000	74.092438	174.9301
325.000000	74.024651	175.6864
335.000000	73.959602	176.4359
345.000000	73.899017	177.2794
355.000000	73.840294	178.1301
365.000000	73.786285	178.7527
375.000000	73.735786	179.5089
387.000000	73.679932	-179.6012
400.000000	73.621010	-178.6200
412.000000	73.568512	-177.7053
425.000000	73.517532	-176.7357
437.000000	73.473145	-175.8498
450.000000	73.425995	-174.9045
462.000000	73.387779	-173.9567
475.000000	73.348976	-172.9754
487.000000	73.315247	-172.0381
500.000000	73.278000	-171.0345
515.000000	73.248978	-169.8072
530.000000	73.215836	-168.5950
545.000000	73.198448	-167.2996
560.000000	73.201500	-166.0799
580.000000	73.213547	-164.4055
600.000000	73.243317	-162.8629
615.000000	73.268257	-161.7834
630.000000	73.304749	-160.7436
650.000000	73.335564	-159.4898
670.000000	73.363617	-158.1968
690.000000	73.385803	-156.8998
710.000000	73.404770	-155.5889
730.000000	73.424240	-154.2421
750.000000	73.448059	-152.8212
775.000000	73.492897	-151.0312
800.000000	73.546547	-149.1428
825.000000	73.609383	-147.1969
850.000000	73.701721	-145.2499
875.000000	73.803596	-143.2559
900.000000	73.932915	-141.2789
925.000000	74.086678	-139.3437
950.000000	74.260132	-137.4268
975.000000	74.458809	-135.6141
1000.000000	74.683365	-133.8949
1030.000000	74.978073	-132.0021
1060.000000	75.290207	-130.4131
1090.000000	75.604378	-129.0599
1120.000000	75.911446	-127.9300
1150.000000	76.218361	-126.8780
1180.000000	76.529388	-125.9890
1220.000000	76.935791	-125.1009
1250.000000	77.226624	-124.5996
1280.000000	77.500046	-124.2342
1320.000000	77.845284	-123.8206
1360.000000	78.168991	-123.4734
1400.000000	78.478722	-123.1236
1450.000000	78.861473	-122.7104
1500.000000	79.242874	-122.3540
1550.000000	79.643242	-122.0544
1600.000000	80.055519	-121.9250
1650.000000	80.481293	-122.0538
1700.000000	80.917381	-122.4880
1750.000000	81.349731	-123.3178
1800.000000	81.755814	-124.5659
1850.000000	82.116318	-126.2410
1900.000000	82.404747	-128.2489
1950.000000	82.606232	-130.3576
2000.000000	82.715080	-132.3605
2060.000000	82.767052	-134.2916
2120.000000	82.783394	-135.6279
2180.000000	82.823952	-136.4461
2240.000000	82.913368	-137.0366
2300.000000	83.052750	-137.6992
2360.000000	83.221405	-138.5941
2430.000000	83.420547	-140.1046
2500.000000	83.580292	-142.0810
2580.000000	83.671944	-144.7305
2650.000000	83.655579	-147.1599
2720.000000	83.547585	-149.4762
2800.000000	83.329903	-151.7536
2900.000000	82.965919	-153.8213
3000.000000	82.554367	-154.9698
3070.000000	82.262543	-155.2523
3150.000000	81.948669	-155.1118
3250.000000	81.590324	-154.4070
3350.000000	81.280792	-153.0538
3450.000000	81.061310	-151.3502
3550.000000	80.907349	-149.4018
3650.000000	80.827797	-147.3255
3750.000000	80.824234	-145.1447
3870.000000	80.918251	-142.5742
4000.000000	81.146225	-139.9674
4120.000000	81.473038	-137.9252
4250.000000	81.963264	-136.4044
4370.000000	82.522293	-136.0248
4500.000000	83.185013	-137.2378
4620.000000	83.728836	-140.1586
4750.000000	84.073479	-144.8070
4870.000000	84.114288	-149.2963
5000.000000	83.995628	-153.5287
5150.000000	83.749359	-158.1487
5300.000000	83.327835	-162.8106
5450.000000	82.665497	-166.8449
5600.000000	81.819466	-169.3765
5800.000000	80.646751	-169.9025
6000.000000	79.673363	-167.8881
6150.000000	79.152145	-165.5656
6300.000000	78.811073	-163.2536
6500.000000	78.562798	-160.9807
6700.000000	78.365280	-160.1003
6900.000000	78.052483	-159.8294
7100.000000	77.656494	-158.9443
7300.000000	77.349815	-157.2424
7500.000000	77.196320	-155.3042
7750.000000	77.315727	-153.3014
8000.000000	77.695633	-153.9164
8250.000000	78.024597	-157.9912
8500.000000	77.894226	-165.0322
8750.000000	77.043343	-171.3673
9000.000000	75.898674	-174.5493
9250.000000	74.743744	-174.4870
9500.000000	73.922852	-172.1551
9750.000000	73.383759	-169.2831
10000.000000	73.188774	-166.2383
10300.000000	73.496544	-163.7525
10600.000000	74.420273	-165.3417
10900.000000	75.614227	-176.1160
11200.000000	75.423409	160.6674
11500.000000	72.165329	140.4112
11800.000000	67.562660	144.1584
12200.000000	66.486526	162.2066
12500.000000	66.584755	163.7714
12800.000000	66.779411	163.6209
13200.000000	67.734306	158.2095
13600.000000	68.553894	142.8183
14000.000000	68.275284	124.3918
14500.000000	67.688049	106.1931
15000.000000	68.045334	86.2777
15500.000000	68.746246	56.3465
16000.000000	68.403107	14.0238
16500.000000	65.793884	-42.0567
17000.000000	57.471020	-75.4981
17500.000000	54.589615	-71.4999
18000.000000	55.651272	-118.9597
18500.000000	55.041645	-179.7350
19000.000000	56.059917	104.1163
19500.000000	57.536736	4.9634
