* Measurement data measured by REW V5.20
* Source: Headset (USB-C to 3.5mm Headphone Jack Adapter), MICROPHONE (Master Volume), R, volume: 0.260
* Format: 256k Log Swept Sine, 1 sweep at -6.0 dBFS with no timing reference
* Dated: Feb 17, 2021 5:55:05 PM
* REW Settings:
*  C-weighting compensation: Off
*  Target level: 75.0 dB
* Note: ; 
* Measurement: Thieaudio Legacy 9 - L
* Smoothing: 1/48 octave
* Frequency Step: 1/24 octave
* Start Frequency: 20.600 Hz
*
* Freq(Hz)	SPL(dB)	Phase(degrees)
20.600000	96.713379	28.5757
21.200001	96.691711	27.0419
21.799999	96.672386	25.4884
22.400000	96.650017	23.9168
23.000000	96.620895	22.4254
23.600000	96.592133	21.0379
24.299999	96.560997	19.4329
25.000000	96.518234	17.7816
25.799999	96.454582	15.9680
26.500000	96.403931	14.4926
27.200001	96.358536	13.0616
28.000000	96.301102	11.4681
29.000000	96.222908	9.5286
30.000000	96.141823	7.6136
30.700001	96.101883	6.3358
31.500000	96.060776	4.9214
32.500000	96.001389	3.1937
33.500000	95.938950	1.5428
34.500000	95.877304	-0.0695
35.500000	95.809196	-1.6159
36.500000	95.739838	-3.1234
37.500000	95.668213	-4.6343
38.700001	95.576172	-6.3783
40.000000	95.475807	-8.1522
41.200001	95.382507	-9.7677
42.500000	95.280563	-11.4627
43.700001	95.185249	-12.9789
45.000000	95.080147	-14.5270
46.200001	94.986221	-15.9570
47.500000	94.870117	-17.4705
48.700001	94.770988	-18.7583
50.000000	94.661827	-20.1882
51.500000	94.536346	-21.7895
53.000000	94.408249	-23.3033
54.500000	94.282188	-24.7664
56.000000	94.175827	-26.2221
58.000000	94.047165	-28.0701
60.000000	93.912506	-29.8873
61.500000	93.821022	-31.1538
63.000000	93.723351	-32.4064
65.000000	93.591209	-34.0367
67.000000	93.459702	-35.6136
69.000000	93.331795	-37.1306
71.000000	93.202309	-38.5956
73.000000	93.067764	-40.0004
75.000000	92.940811	-41.4115
77.500000	92.776802	-43.0702
80.000000	92.612740	-44.6779
82.500000	92.454437	-46.2303
85.000000	92.294998	-47.7144
87.500000	92.137062	-49.1506
90.000000	91.984077	-50.5440
92.500000	91.825508	-51.9039
95.000000	91.675323	-53.2008
97.500000	91.522957	-54.4692
100.000000	91.379440	-55.7016
103.000000	91.222702	-57.1150
106.000000	91.072647	-58.4948
109.000000	90.923454	-59.8289
112.000000	90.779556	-61.1181
115.000000	90.634872	-62.3840
118.000000	90.494522	-63.5869
122.000000	90.310699	-65.1421
125.000000	90.173615	-66.2524
128.000000	90.039871	-67.3387
132.000000	89.865196	-68.7415
136.000000	89.694275	-70.0967
140.000000	89.525558	-71.4213
145.000000	89.321960	-72.9754
150.000000	89.123543	-74.4908
155.000000	88.931000	-75.9368
160.000000	88.744987	-77.3263
165.000000	88.563004	-78.6629
170.000000	88.388283	-79.9420
175.000000	88.216248	-81.1860
180.000000	88.051514	-82.4103
185.000000	87.890137	-83.5386
190.000000	87.733429	-84.6537
195.000000	87.584427	-85.7337
200.000000	87.436356	-86.7666
206.000000	87.264755	-87.9903
212.000000	87.099174	-89.1499
218.000000	86.942696	-90.2679
224.000000	86.789413	-91.3748
230.000000	86.638840	-92.4074
236.000000	86.496315	-93.4053
243.000000	86.336212	-94.5258
250.000000	86.180710	-95.6192
258.000000	86.010406	-96.8141
265.000000	85.871437	-97.8195
272.000000	85.734421	-98.7812
280.000000	85.582359	-99.8355
290.000000	85.406319	-101.0854
300.000000	85.234825	-102.2692
307.000000	85.126556	-103.0810
315.000000	85.002449	-103.9389
325.000000	84.856346	-104.9890
335.000000	84.714500	-105.9820
345.000000	84.583466	-106.8987
355.000000	84.457886	-107.7963
365.000000	84.339294	-108.6391
375.000000	84.226624	-109.4412
387.000000	84.095718	-110.3469
400.000000	83.966331	-111.2490
412.000000	83.851456	-112.0315
425.000000	83.737625	-112.8163
437.000000	83.636436	-113.4908
450.000000	83.533630	-114.1662
462.000000	83.447624	-114.7442
475.000000	83.356186	-115.3283
487.000000	83.274109	-115.8102
500.000000	83.194733	-116.3117
515.000000	83.107040	-116.8159
530.000000	83.023300	-117.2804
545.000000	82.942017	-117.6648
560.000000	82.867279	-117.9942
580.000000	82.773460	-118.3288
600.000000	82.690491	-118.5834
615.000000	82.634491	-118.6825
630.000000	82.579514	-118.7230
650.000000	82.519493	-118.6918
670.000000	82.469955	-118.5643
690.000000	82.433769	-118.3663
710.000000	82.407455	-118.0895
730.000000	82.394104	-117.7451
750.000000	82.390518	-117.3359
775.000000	82.403442	-116.7592
800.000000	82.435234	-116.0799
825.000000	82.488777	-115.3541
850.000000	82.559860	-114.5715
875.000000	82.654648	-113.7384
900.000000	82.773125	-112.9149
925.000000	82.912132	-112.0808
950.000000	83.074509	-111.2773
975.000000	83.259163	-110.5309
1000.000000	83.460281	-109.8606
1030.000000	83.721954	-109.1864
1060.000000	84.002029	-108.6705
1090.000000	84.292908	-108.3347
1120.000000	84.588829	-108.1572
1150.000000	84.882843	-108.1625
1180.000000	85.168762	-108.3098
1220.000000	85.536613	-108.6947
1250.000000	85.797188	-109.0886
1280.000000	86.045204	-109.5471
1320.000000	86.357765	-110.2235
1360.000000	86.651360	-110.9298
1400.000000	86.929214	-111.6393
1450.000000	87.264610	-112.5234
1500.000000	87.589668	-113.4020
1550.000000	87.911972	-114.2826
1600.000000	88.234619	-115.1965
1650.000000	88.558495	-116.1728
1700.000000	88.883896	-117.2445
1750.000000	89.208694	-118.4305
1800.000000	89.530678	-119.7646
1850.000000	89.846420	-121.2582
1900.000000	90.149559	-122.9215
1950.000000	90.437431	-124.7556
2000.000000	90.702759	-126.7684
2060.000000	90.985573	-129.3772
2120.000000	91.223251	-132.1824
2180.000000	91.407509	-135.1311
2240.000000	91.533035	-138.1712
2300.000000	91.597031	-141.2341
2360.000000	91.597275	-144.2493
2430.000000	91.520378	-147.5902
2500.000000	91.368042	-150.6160
2580.000000	91.121529	-153.5459
2650.000000	90.865784	-155.5792
2720.000000	90.596413	-157.1010
2800.000000	90.294380	-158.2555
2900.000000	89.959190	-158.9720
3000.000000	89.693573	-159.1097
3070.000000	89.553932	-158.9794
3150.000000	89.442184	-158.6903
3250.000000	89.376312	-158.2712
3350.000000	89.387245	-157.9397
3450.000000	89.461922	-157.8660
3550.000000	89.583588	-158.2093
3650.000000	89.729248	-159.0717
3750.000000	89.867455	-160.5203
3870.000000	89.979530	-163.0744
4000.000000	89.952255	-166.7578
4120.000000	89.703232	-170.5016
4250.000000	89.189835	-173.8798
4370.000000	88.613724	-175.9305
4500.000000	87.946152	-177.4594
4620.000000	87.250763	-178.4306
4750.000000	86.371262	-178.5822
4870.000000	85.484108	-177.3199
5000.000000	84.538918	-174.1968
5150.000000	83.586800	-168.3785
5300.000000	82.903687	-160.5636
5450.000000	82.589920	-151.2891
5600.000000	82.741882	-141.3625
5800.000000	83.777679	-129.0063
6000.000000	85.744873	-121.1234
6150.000000	87.560272	-120.8810
6300.000000	89.120850	-126.8279
6500.000000	89.810570	-140.1568
6700.000000	89.047699	-149.4920
6900.000000	87.982323	-151.8596
7100.000000	87.262131	-149.8224
7300.000000	87.016129	-146.0492
7500.000000	87.258499	-141.9001
7750.000000	88.169624	-139.3854
8000.000000	89.346031	-141.4242
8250.000000	90.311493	-148.9762
8500.000000	90.462852	-160.0587
8750.000000	89.692924	-169.6072
9000.000000	88.517105	-174.6740
9250.000000	87.433899	-175.9058
9500.000000	86.657074	-175.1623
9750.000000	86.201248	-174.1784
10000.000000	85.927925	-173.9383
10300.000000	85.646355	-174.2670
10600.000000	85.568779	-174.2506
10900.000000	85.831810	-176.0166
11200.000000	86.133263	179.4471
11500.000000	86.304565	173.2684
11800.000000	86.462555	166.2342
12200.000000	86.572449	154.3966
12500.000000	86.646416	145.2573
12800.000000	86.868027	133.5013
13200.000000	86.874039	113.1000
13600.000000	85.952072	86.7817
14000.000000	83.182426	62.0625
14500.000000	78.729904	47.0163
15000.000000	75.649147	41.9364
15500.000000	73.907753	33.6807
16000.000000	72.599945	20.8417
16500.000000	71.933640	3.1115
17000.000000	71.808105	-22.5880
17500.000000	72.109894	-55.0907
18000.000000	73.570381	-95.9253
18500.000000	75.745918	-151.5804
19000.000000	78.142624	133.6744
19500.000000	78.790726	31.4125
