* Measurement data measured by REW V5.20 Beta 55
* Source: IEC-60711 (USB Sound Device        ), MICROPHONE (Master Volume), R, volume: 0.530
* Format: 256k Log Swept Sine, 1 sweep at -3.0 dBFS with no timing reference
* Dated: Jul 6, 2020 3:27:16 PM
* REW Settings:
*  C-weighting compensation: Off
*  Target level: 12.4 dB
* Note: ; 
* Measurement: UM ME1 CIEM - R
* Smoothing: 1/48 octave
* Frequency Step: 1/24 octave
* Start Frequency: 20.600 Hz
*
* Freq(Hz)	SPL(dB)	Phase(degrees)
20.600000	66.656776	-123.3893
21.200001	66.662308	-121.3375
21.799999	66.781647	-119.4424
22.400000	66.803513	-119.0878
23.000000	66.832870	-119.7327
23.600000	67.145531	-122.2095
24.299999	67.506477	-127.8931
25.000000	67.218513	-131.3661
25.799999	66.944710	-125.4082
26.500000	67.975830	-121.6496
27.200001	68.801315	-127.6382
28.000000	68.324753	-135.5558
29.000000	67.527443	-129.4810
30.000000	68.481277	-124.1251
30.700001	68.684372	-126.5730
31.500000	68.580223	-130.7211
32.500000	68.354607	-135.2672
33.500000	68.058609	-132.5139
34.500000	68.392715	-128.8352
35.500000	68.557198	-129.9377
36.500000	68.823891	-131.6159
37.500000	69.079689	-132.7355
38.700001	69.268196	-133.9345
40.000000	68.825020	-134.4088
41.200001	69.031448	-134.2463
42.500000	69.021339	-134.1991
43.700001	69.615593	-134.2392
45.000000	69.585907	-134.1555
46.200001	69.964104	-135.8024
47.500000	69.618294	-137.6292
48.700001	69.286301	-136.8866
50.000000	69.678925	-135.9912
51.500000	69.582947	-138.6150
53.000000	69.962120	-137.0202
54.500000	70.127213	-139.5810
56.000000	70.198166	-139.8702
58.000000	70.450745	-140.6891
60.000000	70.043449	-138.4332
61.500000	70.336349	-139.5783
63.000000	70.505928	-139.4851
65.000000	70.313858	-139.9592
67.000000	70.518417	-141.9139
69.000000	71.093384	-138.5634
71.000000	70.659180	-139.7726
73.000000	70.816750	-140.7696
75.000000	70.431313	-141.9371
77.500000	70.817810	-141.9759
80.000000	70.988762	-142.4817
82.500000	71.003555	-143.0036
85.000000	70.749023	-144.1615
87.500000	70.842293	-141.7661
90.000000	71.004044	-141.9820
92.500000	71.042755	-143.2744
95.000000	71.231689	-142.1658
97.500000	71.494431	-143.4267
100.000000	71.057037	-141.9283
103.000000	71.074905	-143.1660
106.000000	71.320877	-141.9741
109.000000	71.319473	-142.6749
112.000000	70.928490	-143.3653
115.000000	71.148178	-141.3926
118.000000	71.235817	-141.8014
122.000000	71.397568	-141.6643
125.000000	71.382072	-142.4493
128.000000	71.632530	-143.5442
132.000000	71.545494	-142.1541
136.000000	71.501450	-141.2844
140.000000	71.489365	-139.5322
145.000000	71.510872	-142.0983
150.000000	71.555374	-139.8115
155.000000	71.493027	-138.7130
160.000000	71.565521	-141.1383
165.000000	71.561424	-138.3080
170.000000	71.567635	-138.0531
175.000000	71.751526	-137.5887
180.000000	71.557144	-137.9774
185.000000	71.637306	-138.1181
190.000000	71.517845	-137.8559
195.000000	71.538147	-136.0934
200.000000	71.800606	-135.2739
206.000000	71.582703	-136.7136
212.000000	71.826248	-135.6173
218.000000	72.075775	-134.6922
224.000000	72.006828	-133.2115
230.000000	71.784599	-133.4257
236.000000	71.916107	-132.2843
243.000000	71.778046	-132.9177
250.000000	72.031898	-131.2936
258.000000	71.807938	-130.0370
265.000000	71.943207	-130.0672
272.000000	72.050667	-127.9554
280.000000	71.971832	-127.1782
290.000000	72.174690	-127.6426
300.000000	72.043671	-126.1714
307.000000	72.069252	-125.9275
315.000000	72.233612	-125.5476
325.000000	72.163620	-122.8034
335.000000	72.248230	-122.8571
345.000000	72.214798	-122.8477
355.000000	72.192223	-121.5193
365.000000	72.580872	-120.7993
375.000000	72.407799	-117.0021
387.000000	72.468597	-117.6638
400.000000	72.499039	-116.6194
412.000000	72.428467	-114.8981
425.000000	72.574295	-113.3206
437.000000	72.718636	-112.3528
450.000000	72.682312	-111.3177
462.000000	72.745651	-110.0217
475.000000	72.737083	-109.1686
487.000000	72.896584	-108.5307
500.000000	72.919495	-107.9475
515.000000	72.965721	-105.8425
530.000000	73.124359	-105.4864
545.000000	73.122871	-102.9365
560.000000	73.181145	-102.0450
580.000000	73.238365	-100.6527
600.000000	73.398613	-99.9780
615.000000	73.391594	-97.9302
630.000000	73.594376	-96.4761
650.000000	73.560234	-95.8890
670.000000	73.682541	-94.8900
690.000000	73.826126	-94.1670
710.000000	73.928650	-92.3375
730.000000	73.978638	-90.7185
750.000000	74.134178	-89.5709
775.000000	74.377899	-88.7278
800.000000	74.351440	-86.6475
825.000000	74.485451	-85.9161
850.000000	74.484337	-85.1471
875.000000	74.538589	-82.8932
900.000000	74.624031	-82.3846
925.000000	74.752022	-81.3062
950.000000	74.855545	-79.8330
975.000000	74.872948	-78.2442
1000.000000	75.355057	-80.3948
1030.000000	75.148521	-77.0382
1060.000000	75.328323	-75.5042
1090.000000	75.347931	-74.0007
1120.000000	75.473648	-73.2185
1150.000000	75.687920	-73.1375
1180.000000	75.717659	-72.2233
1220.000000	75.825577	-71.5537
1250.000000	75.890846	-71.3672
1280.000000	75.986130	-71.2695
1320.000000	75.977867	-69.7653
1360.000000	76.117805	-71.0784
1400.000000	76.079872	-70.9101
1450.000000	75.955032	-71.0009
1500.000000	75.888039	-71.6354
1550.000000	75.788696	-71.1220
1600.000000	75.543060	-71.4041
1650.000000	75.314568	-71.5687
1700.000000	75.037453	-71.0176
1750.000000	74.655586	-70.3269
1800.000000	74.323906	-69.9092
1850.000000	73.922447	-70.6282
1900.000000	73.385330	-72.5478
1950.000000	72.196533	-72.8769
2000.000000	70.241928	-71.6005
2060.000000	69.661026	-49.7475
2120.000000	70.694000	-40.8884
2180.000000	71.182945	-37.1110
2240.000000	71.487671	-34.9831
2300.000000	71.539696	-32.4994
2360.000000	71.541977	-29.1227
2430.000000	71.578781	-25.9804
2500.000000	71.933212	-21.8836
2580.000000	72.255325	-18.1915
2650.000000	72.862572	-14.4927
2720.000000	73.560799	-13.4463
2800.000000	74.554962	-13.6284
2900.000000	75.941368	-25.3557
3000.000000	74.596603	-54.7607
3070.000000	68.806602	-63.2674
3150.000000	63.563801	-19.1495
3250.000000	67.387207	20.4287
3350.000000	70.636841	28.0286
3450.000000	73.167305	27.9828
3550.000000	75.205437	22.1948
3650.000000	76.528763	10.2238
3750.000000	76.574142	-6.4104
3870.000000	74.208099	-20.0063
4000.000000	72.381897	-23.3004
4120.000000	67.373413	-11.1495
4250.000000	69.790894	27.4958
4370.000000	71.866501	18.0607
4500.000000	71.055382	9.4022
4620.000000	69.113937	25.1903
4750.000000	72.290863	30.6427
4870.000000	72.934624	23.2725
5000.000000	72.485497	17.2945
5150.000000	72.197571	15.7502
5300.000000	71.139114	21.7518
5450.000000	72.471085	25.2916
5600.000000	73.071640	17.3871
5800.000000	72.663033	6.8062
6000.000000	71.076935	-3.1043
6150.000000	69.309288	-8.9649
6300.000000	66.880661	-10.2356
6500.000000	61.828720	17.0770
6700.000000	66.107765	64.8130
6900.000000	67.837250	28.6939
7100.000000	67.487076	79.5700
7300.000000	73.619141	53.8669
7500.000000	73.115631	29.8548
7750.000000	71.973526	13.6454
8000.000000	70.806488	1.1558
8250.000000	67.887123	4.9981
8500.000000	70.663956	-13.8242
8750.000000	66.413239	-32.2203
9000.000000	63.991360	-27.1035
9250.000000	61.581696	-34.5590
9500.000000	61.081066	23.1758
9750.000000	59.504482	-44.2563
10000.000000	58.891388	-61.5347
10300.000000	58.160110	69.1382
10600.000000	58.339851	-28.0303
10900.000000	60.400795	70.8457
11200.000000	59.857700	-124.8457
11500.000000	60.698906	120.4160
11800.000000	60.934647	-124.5625
12200.000000	60.823032	-64.6758
12500.000000	59.519756	44.6191
12800.000000	60.069984	-173.6914
13200.000000	58.308186	50.0117
13600.000000	57.945538	-39.2695
14000.000000	58.438793	153.5469
14500.000000	57.650826	-87.5469
15000.000000	57.884113	121.1953
15500.000000	58.078957	-165.0625
16000.000000	58.637226	-166.5156
16500.000000	58.664955	70.5469
17000.000000	59.073570	152.4062
17500.000000	59.069542	-29.4375
18000.000000	58.659866	106.3828
18500.000000	58.518604	113.2422
19000.000000	58.454464	15.1641
19500.000000	57.387100	43.4219
