* Measurement data measured by REW V5.20 Beta 59
* Source: Headset (USB-C to 3.5mm Headphone Jack Adapter), MICROPHONE (Master Volume), R, volume: 0.169
* Format: 256k Log Swept Sine, 1 sweep at -6.0 dBFS with no timing reference
* Dated: Sep 22, 2020 11:54:08 AM
* REW Settings:
*  C-weighting compensation: Off
*  Target level: 75.0 dB
* Note: ; 
* Measurement: MEST CIEM  75 Ohm
* Smoothing: 1/48 octave
* Frequency Step: 1/24 octave
* Start Frequency: 20.600 Hz
*
* Freq(Hz)	SPL(dB)	Phase(degrees)
20.600000	86.031540	-150.4533
21.200001	86.055275	-152.1916
21.799999	86.086250	-153.7138
22.400000	86.166817	-155.0620
23.000000	86.275703	-156.4843
23.600000	86.345299	-158.0294
24.299999	86.350525	-159.7059
25.000000	86.347397	-161.2931
25.799999	86.359566	-163.3816
26.500000	86.358841	-164.8957
27.200001	86.428093	-165.7639
28.000000	86.582169	-167.1550
29.000000	86.557831	-169.8008
30.000000	86.453674	-171.4322
30.700001	86.496742	-172.6761
31.500000	86.502281	-174.4785
32.500000	86.448418	-176.0466
33.500000	86.462265	-177.6447
34.500000	86.424873	-179.3981
35.500000	86.398102	179.0648
36.500000	86.370544	177.2993
37.500000	86.317993	175.9266
38.700001	86.241791	174.7225
40.000000	86.144760	173.0074
41.200001	86.123726	171.1527
42.500000	86.137627	169.8829
43.700001	86.037216	168.6441
45.000000	85.899803	166.9809
46.200001	85.892418	165.6155
47.500000	85.814964	164.5305
48.700001	85.728714	163.7124
50.000000	85.684998	162.0604
51.500000	85.587563	160.5442
53.000000	85.494232	159.3309
54.500000	85.384430	157.9236
56.000000	85.309265	156.8284
58.000000	85.166237	155.3124
60.000000	85.034500	153.0961
61.500000	84.921944	152.4910
63.000000	84.850159	151.5598
65.000000	84.721054	150.3577
67.000000	84.574303	149.1279
69.000000	84.458740	147.6802
71.000000	84.318985	146.6296
73.000000	84.194550	145.7666
75.000000	84.111908	144.6527
77.500000	83.968437	143.2443
80.000000	83.755592	141.9720
82.500000	83.653763	140.9999
85.000000	83.501068	139.8540
87.500000	83.240295	139.0015
90.000000	83.830597	134.5473
92.500000	82.725975	141.1216
95.000000	82.936913	136.3442
97.500000	82.701080	135.1928
100.000000	82.660606	134.6593
103.000000	82.345901	133.5101
106.000000	82.236275	131.8408
109.000000	82.254692	132.4592
112.000000	81.821335	130.6810
115.000000	82.060791	130.5114
118.000000	81.553314	128.7138
122.000000	81.611053	129.1970
125.000000	81.400406	127.1298
128.000000	81.106758	126.7749
132.000000	81.040840	127.2126
136.000000	80.956528	125.9544
140.000000	80.880836	124.9329
145.000000	80.652657	122.5999
150.000000	80.365433	121.5180
155.000000	80.226868	121.5383
160.000000	80.077087	121.8013
165.000000	79.729218	121.3971
170.000000	79.612236	119.7869
175.000000	79.434860	119.8496
180.000000	79.301346	119.0105
185.000000	79.127182	118.4168
190.000000	78.979729	117.9499
195.000000	78.861237	117.2749
200.000000	78.725433	116.8420
206.000000	78.559425	116.1674
212.000000	78.404816	115.6782
218.000000	78.268600	115.1573
224.000000	78.112663	114.5345
230.000000	77.956802	114.1140
236.000000	77.827309	113.5255
243.000000	77.678902	113.0234
250.000000	77.548897	112.5227
258.000000	77.392807	112.0254
265.000000	77.263451	111.5571
272.000000	77.139503	111.2739
280.000000	77.037476	110.8168
290.000000	76.837753	110.2537
300.000000	76.697685	109.8925
307.000000	76.560295	109.5030
315.000000	76.439789	109.1087
325.000000	76.300636	108.8125
335.000000	76.160606	108.4528
345.000000	76.040039	108.1426
355.000000	75.918617	107.9039
365.000000	75.812943	107.7389
375.000000	75.694397	107.4603
387.000000	75.553406	107.2195
400.000000	75.426643	106.9647
412.000000	75.315598	106.8423
425.000000	75.203682	106.8600
437.000000	75.085617	106.7294
450.000000	75.016830	106.8065
462.000000	74.895523	106.9130
475.000000	74.828392	107.0334
487.000000	74.742821	107.1321
500.000000	74.652092	107.1872
515.000000	74.536911	107.6705
530.000000	74.474747	107.8476
545.000000	74.402847	108.2879
560.000000	74.310135	108.6481
580.000000	74.222992	109.2699
600.000000	74.131813	110.1862
615.000000	74.076279	110.5772
630.000000	74.008545	111.1981
650.000000	73.901489	112.4432
670.000000	73.915718	114.3381
690.000000	73.947243	114.8547
710.000000	73.918144	115.9081
730.000000	73.884743	117.0352
750.000000	73.885483	118.3364
775.000000	73.890694	119.9377
800.000000	73.913605	121.7828
825.000000	73.944252	123.5658
850.000000	73.992676	125.3898
875.000000	74.090500	127.5052
900.000000	74.191010	129.5573
925.000000	74.326813	131.4947
950.000000	74.463181	133.5030
975.000000	74.653755	135.3591
1000.000000	74.847908	137.2831
1030.000000	75.106354	139.3895
1060.000000	75.372932	141.2220
1090.000000	75.659866	142.9684
1120.000000	75.926094	144.6072
1150.000000	76.232018	145.8837
1180.000000	76.515198	147.0562
1220.000000	76.851799	148.5414
1250.000000	77.102081	149.5106
1280.000000	77.327477	150.3534
1320.000000	77.610069	151.3747
1360.000000	77.881775	152.3160
1400.000000	78.108688	153.3084
1450.000000	78.373245	154.5166
1500.000000	78.599777	155.7374
1550.000000	78.819382	157.0066
1600.000000	79.024521	158.1630
1650.000000	79.213799	159.5796
1700.000000	79.378578	160.9066
1750.000000	79.546394	162.2083
1800.000000	79.705612	163.5054
1850.000000	79.856918	164.8203
1900.000000	80.008217	166.0873
1950.000000	80.142670	167.3089
2000.000000	80.267288	168.4344
2060.000000	80.412163	169.6977
2120.000000	80.536438	170.8961
2180.000000	80.635826	171.9308
2240.000000	80.706390	172.9309
2300.000000	80.758522	173.7861
2360.000000	80.783112	174.6559
2430.000000	80.774231	175.5856
2500.000000	80.717819	176.3663
2580.000000	80.599838	177.3447
2650.000000	80.463181	178.1768
2720.000000	80.290825	179.0514
2800.000000	80.060196	-179.8401
2900.000000	79.721863	-178.4580
3000.000000	79.363953	-176.7839
3070.000000	79.090279	-175.6845
3150.000000	78.782234	-174.4225
3250.000000	78.416000	-172.8579
3350.000000	78.062004	-171.4671
3450.000000	77.749252	-170.2659
3550.000000	77.486816	-169.3753
3650.000000	77.287437	-169.0099
3750.000000	77.146980	-169.2813
3870.000000	77.066833	-170.4260
4000.000000	77.098297	-172.8670
4120.000000	77.213409	-175.9416
4250.000000	77.464752	-179.9178
4370.000000	77.822075	176.2101
4500.000000	78.348228	171.3136
4620.000000	78.878624	165.8285
4750.000000	79.228775	158.9320
4870.000000	79.187691	153.5686
5000.000000	78.965500	150.7194
5150.000000	78.777802	150.3908
5300.000000	78.763855	151.5480
5450.000000	78.799133	153.1315
5600.000000	78.792694	154.7551
5800.000000	78.588776	157.4891
6000.000000	78.103249	161.0849
6150.000000	77.563454	165.0552
6300.000000	76.920799	170.2726
6500.000000	76.016479	179.1272
6700.000000	75.111206	-170.1254
6900.000000	74.289093	-157.8805
7100.000000	73.517609	-144.8966
7300.000000	72.716797	-130.8144
7500.000000	72.077232	-114.8658
7750.000000	71.570000	-94.5793
8000.000000	71.256317	-74.7916
8250.000000	71.033905	-55.4938
8500.000000	70.817825	-35.9792
8750.000000	70.668457	-16.4016
9000.000000	70.641876	3.5860
9250.000000	70.704475	23.6224
9500.000000	70.956299	42.9810
9750.000000	71.274368	62.0227
10000.000000	71.720360	80.2540
10300.000000	72.411118	101.7006
10600.000000	73.338654	121.6955
10900.000000	74.461540	139.6561
11200.000000	75.709618	154.3622
11500.000000	76.884392	165.3771
11800.000000	77.800873	173.6638
12200.000000	78.585144	-178.6888
12500.000000	78.885124	-174.9995
12800.000000	78.853363	-173.9686
13200.000000	77.683182	-173.5709
13600.000000	76.198250	-167.8319
14000.000000	74.972153	-167.4480
14500.000000	71.400345	-167.1402
15000.000000	67.306984	-155.9352
15500.000000	63.909565	-140.6271
16000.000000	61.082825	-126.6024
16500.000000	58.488724	-115.3392
17000.000000	55.878586	-109.2313
17500.000000	53.104607	-105.7449
18000.000000	50.407707	-101.2861
18500.000000	49.119034	-119.4161
19000.000000	45.383934	-135.6403
19500.000000	42.068787	-66.5688
