* Measurement data measured by REW V5.20 Beta 59
* Source: Headset (USB-C to 3.5mm Headphone Jack Adapter), MICROPHONE (Master Volume), R, volume: 0.169
* Format: 256k Log Swept Sine, 1 sweep at -6.0 dBFS with no timing reference
* Dated: Sep 28, 2020 2:03:46 PM
* REW Settings:
*  C-weighting compensation: Off
*  Target level: 75.0 dB
* Note: ; 
* Measurement: Cat Ear Mia - L
* Smoothing: 1/48 octave
* Frequency Step: 1/24 octave
* Start Frequency: 20.600 Hz
*
* Freq(Hz)	SPL(dB)	Phase(degrees)
20.600000	79.064476	-111.0694
21.200001	79.211243	-113.0481
21.799999	79.347717	-114.9603
22.400000	79.467163	-116.7426
23.000000	79.570145	-118.3771
23.600000	79.667183	-119.9208
24.299999	79.788872	-121.7188
25.000000	79.924728	-123.6498
25.799999	80.055458	-126.0994
26.500000	80.112289	-128.0752
27.200001	80.176956	-129.4625
28.000000	80.343376	-130.7837
29.000000	80.513657	-132.8442
30.000000	80.550690	-134.4069
30.700001	80.601387	-135.4865
31.500000	80.641838	-137.0774
32.500000	80.679306	-138.7501
33.500000	80.771255	-140.5230
34.500000	80.800720	-142.2842
35.500000	80.846802	-143.5884
36.500000	80.864883	-144.9402
37.500000	80.887207	-146.1357
38.700001	80.983757	-148.0213
40.000000	81.019913	-149.3946
41.200001	81.011765	-150.6078
42.500000	80.974350	-152.4756
43.700001	81.055489	-154.0480
45.000000	81.100792	-155.2428
46.200001	81.067894	-156.3862
47.500000	81.041603	-157.5446
48.700001	81.104721	-159.0323
50.000000	81.079987	-160.2250
51.500000	81.052620	-160.8562
53.000000	81.059906	-162.1196
54.500000	81.046494	-163.6659
56.000000	81.052231	-164.9531
58.000000	81.045120	-166.0891
60.000000	80.974167	-167.4013
61.500000	80.977463	-169.3223
63.000000	80.902878	-169.5554
65.000000	80.862724	-170.3756
67.000000	80.822136	-171.5047
69.000000	80.800064	-172.8098
71.000000	80.779518	-173.2269
73.000000	80.684418	-174.5744
75.000000	80.693779	-176.0294
77.500000	80.604660	-176.7696
80.000000	80.589989	-176.5478
82.500000	80.633369	-177.8138
85.000000	80.228958	178.6468
87.500000	80.376167	-175.9499
90.000000	84.621246	137.3899
92.500000	81.141953	-179.7767
95.000000	80.467209	176.9763
97.500000	80.122437	177.8763
100.000000	80.201530	177.4848
103.000000	80.146950	176.3597
106.000000	80.053558	175.6113
109.000000	79.984215	174.9074
112.000000	79.901047	174.1479
115.000000	79.819206	173.4582
118.000000	79.731331	173.0312
122.000000	79.616653	172.4708
125.000000	79.689774	171.7650
128.000000	79.475151	171.3215
132.000000	79.398247	170.7050
136.000000	79.284943	170.1564
140.000000	79.175598	169.9485
145.000000	79.083298	169.2899
150.000000	78.974571	168.6353
155.000000	78.875305	168.2337
160.000000	78.741592	167.7706
165.000000	78.647469	167.2914
170.000000	78.525513	166.9964
175.000000	78.459381	166.5921
180.000000	78.319435	166.7089
185.000000	78.211281	166.0913
190.000000	78.106262	165.9017
195.000000	77.993004	165.7194
200.000000	77.889694	165.6480
206.000000	77.762230	165.4011
212.000000	77.619957	165.3216
218.000000	77.487228	165.2195
224.000000	77.357536	165.4386
230.000000	77.239082	165.6462
236.000000	77.152214	165.9822
243.000000	77.085098	166.6051
250.000000	77.039665	166.6204
258.000000	76.999481	166.0639
265.000000	76.904160	165.9185
272.000000	76.778046	165.9731
280.000000	76.665710	165.8974
290.000000	76.518295	165.9269
300.000000	76.354477	166.1454
307.000000	76.263870	166.2793
315.000000	76.149658	166.4835
325.000000	76.024200	166.7735
335.000000	75.892227	167.0616
345.000000	75.754837	167.3905
355.000000	75.634010	167.7553
365.000000	75.519684	168.2027
375.000000	75.406876	168.6805
387.000000	75.269585	169.1183
400.000000	75.141937	169.7711
412.000000	75.007019	170.3949
425.000000	74.884232	171.0880
437.000000	74.755249	171.7526
450.000000	74.651855	172.5632
462.000000	74.558113	173.3051
475.000000	74.460663	174.0691
487.000000	74.372360	174.8406
500.000000	74.276726	175.6515
515.000000	74.179665	176.5599
530.000000	74.083260	177.5672
545.000000	73.992683	178.5926
560.000000	73.912788	179.6110
580.000000	73.813789	-178.9799
600.000000	73.737122	-177.6159
615.000000	73.681320	-176.6029
630.000000	73.643867	-175.8516
650.000000	73.416283	-174.7593
670.000000	73.354065	-172.3216
690.000000	73.343758	-170.5912
710.000000	73.326889	-168.9776
730.000000	73.314392	-167.3408
750.000000	73.311371	-165.7002
775.000000	73.322632	-163.5895
800.000000	73.354660	-161.5218
825.000000	73.404396	-159.4217
850.000000	73.478546	-157.3238
875.000000	73.574020	-155.2521
900.000000	73.694260	-153.2348
925.000000	73.840080	-151.2632
950.000000	74.005829	-149.4053
975.000000	74.189659	-147.6490
1000.000000	74.397659	-146.0017
1030.000000	74.662460	-144.2018
1060.000000	74.942978	-142.6028
1090.000000	75.232605	-141.2403
1120.000000	75.524971	-140.0710
1150.000000	75.816292	-139.1209
1180.000000	76.100212	-138.2977
1220.000000	76.470184	-137.4246
1250.000000	76.736275	-136.9116
1280.000000	76.992973	-136.4562
1320.000000	77.326981	-135.9631
1360.000000	77.645691	-135.5365
1400.000000	77.958900	-135.1577
1450.000000	78.350563	-134.7898
1500.000000	78.743088	-134.4866
1550.000000	79.144440	-134.3401
1600.000000	79.554138	-134.2905
1650.000000	79.984955	-134.4475
1700.000000	80.422958	-134.8467
1750.000000	80.873878	-135.5055
1800.000000	81.332626	-136.5199
1850.000000	81.787766	-137.8957
1900.000000	82.236839	-139.7067
1950.000000	82.662857	-141.9810
2000.000000	83.046143	-144.7334
2060.000000	83.425346	-148.6023
2120.000000	83.689056	-152.9776
2180.000000	83.815834	-157.6344
2240.000000	83.795059	-162.3015
2300.000000	83.633865	-166.7064
2360.000000	83.359741	-170.6608
2430.000000	82.927246	-174.4890
2500.000000	82.426247	-177.4153
2580.000000	81.815132	-179.7165
2650.000000	81.280266	179.0830
2720.000000	80.764740	178.5259
2800.000000	80.213631	178.5258
2900.000000	79.587173	179.3186
3000.000000	79.041687	-179.1150
3070.000000	78.717216	-177.5748
3150.000000	78.416367	-175.4369
3250.000000	78.251389	-172.2825
3350.000000	78.246490	-170.3753
3450.000000	78.180267	-168.8936
3550.000000	78.119141	-167.2609
3650.000000	78.108139	-165.4993
3750.000000	78.154381	-163.7822
3870.000000	78.283379	-161.9366
4000.000000	78.503738	-160.2415
4120.000000	78.781548	-159.1319
4250.000000	79.154030	-158.4950
4370.000000	79.561699	-158.5427
4500.000000	80.074448	-159.5199
4620.000000	80.614761	-161.7867
4750.000000	81.142517	-166.3892
4870.000000	81.410393	-172.5101
5000.000000	81.312408	179.6805
5150.000000	80.643066	171.1027
5300.000000	79.560493	164.6538
5450.000000	78.275124	160.6442
5600.000000	76.926254	158.8981
5800.000000	75.192230	159.4973
6000.000000	73.636169	162.5288
6150.000000	72.610634	165.8997
6300.000000	71.712509	169.8831
6500.000000	70.704918	175.8283
6700.000000	69.859657	-177.6810
6900.000000	69.258392	-170.9756
7100.000000	68.733353	-164.3965
7300.000000	68.392265	-157.1817
7500.000000	68.245651	-150.0621
7750.000000	68.363373	-141.1862
8000.000000	68.849220	-132.9456
8250.000000	69.723839	-125.7121
8500.000000	71.075058	-119.9607
8750.000000	73.048409	-116.7002
9000.000000	75.979828	-118.8794
9250.000000	79.701454	-136.4462
9500.000000	80.440063	-178.5159
9750.000000	76.684814	154.7846
10000.000000	73.011208	148.4436
10300.000000	69.945992	149.7430
10600.000000	67.889992	154.2417
10900.000000	66.528442	159.8824
11200.000000	65.697426	165.7707
11500.000000	65.311905	171.5855
11800.000000	65.386711	176.7541
12200.000000	66.236900	-178.2320
12500.000000	67.546806	-178.0990
12800.000000	69.067764	176.5211
13200.000000	72.222565	160.3233
13600.000000	72.499741	106.6052
14000.000000	66.640083	76.6193
14500.000000	60.636402	66.9022
15000.000000	56.296104	63.2005
15500.000000	53.432060	57.8016
16000.000000	51.523979	44.0106
16500.000000	50.492271	24.2415
17000.000000	51.024658	-1.7745
17500.000000	53.673759	-34.5931
18000.000000	58.369171	-81.1117
18500.000000	62.344765	-162.3095
19000.000000	60.093365	105.9640
19500.000000	56.006088	30.7548
