* Measurement data measured by REW V5.20 Beta 59
* Source: Headset (USB-C to 3.5mm Headphone Jack Adapter), MICROPHONE (Master Volume), R, volume: 0.169
* Format: 256k Log Swept Sine, 1 sweep at -6.0 dBFS with no timing reference
* Dated: Sep 30, 2020 5:01:55 PM
* REW Settings:
*  C-weighting compensation: Off
*  Target level: 75.0 dB
* Note: ; 
* Measurement: Mangird MT4 - L
* Smoothing: 1/48 octave
* Frequency Step: 1/24 octave
* Start Frequency: 20.600 Hz
*
* Freq(Hz)	SPL(dB)	Phase(degrees)
20.600000	85.074356	41.8039
21.200001	85.067398	40.2884
21.799999	85.044724	38.7411
22.400000	85.035248	37.2630
23.000000	85.043076	35.9188
23.600000	85.054001	34.7426
24.299999	85.056030	33.5117
25.000000	85.038383	32.2326
25.799999	84.994530	30.6802
26.500000	84.966911	29.3990
27.200001	84.962448	28.1235
28.000000	84.934425	26.6027
29.000000	84.859085	25.0089
30.000000	84.851051	23.4993
30.700001	84.849442	22.2309
31.500000	84.784485	21.0144
32.500000	84.734001	19.8846
33.500000	84.756439	18.2279
34.500000	84.743652	16.5611
35.500000	84.706947	15.3566
36.500000	84.651672	14.2766
37.500000	84.637100	13.0764
38.700001	84.589920	11.5240
40.000000	84.530380	10.4982
41.200001	84.467323	8.8179
42.500000	84.406723	7.4996
43.700001	84.395523	6.1603
45.000000	84.278061	4.9111
46.200001	84.245232	3.7422
47.500000	84.198700	2.5514
48.700001	84.130890	1.5036
50.000000	84.030930	0.2864
51.500000	84.001274	-1.0452
53.000000	83.896347	-2.2605
54.500000	83.844131	-3.2361
56.000000	83.801277	-4.5388
58.000000	83.676208	-5.8267
60.000000	83.641068	-7.6997
61.500000	83.589447	-8.4857
63.000000	83.545380	-9.4986
65.000000	83.460442	-10.7730
67.000000	83.401756	-11.9850
69.000000	83.336388	-13.2214
71.000000	83.275398	-14.3617
73.000000	83.186951	-15.3643
75.000000	83.103371	-16.5317
77.500000	82.996750	-18.2270
80.000000	82.933960	-19.2383
82.500000	82.828041	-20.4609
85.000000	82.733551	-21.6177
87.500000	82.649055	-22.7528
90.000000	82.491943	-24.5836
92.500000	82.471382	-25.0128
95.000000	82.365036	-26.0707
97.500000	82.266083	-26.9861
100.000000	82.147545	-28.0036
103.000000	82.083160	-29.2875
106.000000	81.998566	-30.3323
109.000000	81.902969	-31.3854
112.000000	81.820938	-32.4732
115.000000	81.710007	-33.6794
118.000000	81.623734	-34.3546
122.000000	81.505013	-35.6345
125.000000	81.429787	-36.4979
128.000000	81.321312	-37.4781
132.000000	81.227631	-38.5910
136.000000	81.118286	-39.6609
140.000000	81.008072	-40.8131
145.000000	80.857521	-41.9762
150.000000	80.725807	-43.2174
155.000000	80.564423	-44.2442
160.000000	80.450363	-45.4335
165.000000	80.323784	-46.5038
170.000000	80.186073	-47.5799
175.000000	80.063309	-48.4591
180.000000	79.926704	-49.3325
185.000000	79.806763	-50.3158
190.000000	79.686325	-51.1521
195.000000	79.574684	-52.0208
200.000000	79.456367	-52.7940
206.000000	79.321571	-53.6962
212.000000	79.186577	-54.6448
218.000000	79.057663	-55.4319
224.000000	78.931198	-56.2752
230.000000	78.809120	-57.0070
236.000000	78.692825	-57.7526
243.000000	78.563347	-58.6420
250.000000	78.437149	-59.4827
258.000000	78.296844	-60.3015
265.000000	78.176590	-61.0287
272.000000	78.058846	-61.7029
280.000000	77.931183	-62.4277
290.000000	77.791069	-63.3596
300.000000	77.640884	-64.2163
307.000000	77.548935	-64.7614
315.000000	77.448524	-65.3827
325.000000	77.322937	-66.1111
335.000000	77.210907	-66.7919
345.000000	77.097946	-67.4322
355.000000	76.996071	-68.0479
365.000000	76.899284	-68.5905
375.000000	76.807442	-69.1121
387.000000	76.709366	-69.6602
400.000000	76.602783	-70.1694
412.000000	76.521973	-70.5664
425.000000	76.455002	-70.8906
437.000000	76.416298	-71.1591
450.000000	76.407524	-71.4495
462.000000	76.416298	-71.8477
475.000000	76.433563	-72.4180
487.000000	76.438499	-73.0548
500.000000	76.432091	-73.7457
515.000000	76.408997	-74.4998
530.000000	76.375015	-75.1573
545.000000	76.345695	-75.6503
560.000000	76.320175	-76.0046
580.000000	76.316299	-76.4108
600.000000	76.338577	-76.7176
615.000000	76.370529	-76.9766
630.000000	76.406219	-77.2112
650.000000	76.464867	-77.5616
670.000000	76.532547	-77.8498
690.000000	76.604851	-78.1365
710.000000	76.683708	-78.3790
730.000000	76.779465	-78.6137
750.000000	76.877441	-78.8059
775.000000	77.020287	-79.0022
800.000000	77.176086	-79.1925
825.000000	77.345970	-79.3604
850.000000	77.535522	-79.4910
875.000000	77.743042	-79.6658
900.000000	77.969170	-79.8908
925.000000	78.209221	-80.1297
950.000000	78.461998	-80.4665
975.000000	78.730957	-80.8869
1000.000000	79.008484	-81.4154
1030.000000	79.347321	-82.2036
1060.000000	79.690887	-83.1783
1090.000000	80.031273	-84.3542
1120.000000	80.357574	-85.7007
1150.000000	80.667870	-87.1762
1180.000000	80.960548	-88.7777
1220.000000	81.314613	-91.0398
1250.000000	81.554970	-92.7706
1280.000000	81.773064	-94.5379
1320.000000	82.034592	-96.8670
1360.000000	82.265289	-99.1463
1400.000000	82.471275	-101.3750
1450.000000	82.703156	-104.0672
1500.000000	82.910233	-106.6408
1550.000000	83.096718	-109.1406
1600.000000	83.268661	-111.5642
1650.000000	83.426353	-113.9225
1700.000000	83.570709	-116.2435
1750.000000	83.702057	-118.5510
1800.000000	83.818626	-120.8463
1850.000000	83.917862	-123.1364
1900.000000	84.000870	-125.4039
1950.000000	84.062485	-127.6679
2000.000000	84.102798	-129.9105
2060.000000	84.121628	-132.5598
2120.000000	84.105118	-135.1198
2180.000000	84.055298	-137.5823
2240.000000	83.973045	-139.8775
2300.000000	83.862274	-142.0042
2360.000000	83.729523	-143.9176
2430.000000	83.553368	-145.8584
2500.000000	83.360397	-147.4630
2580.000000	83.131485	-148.9010
2650.000000	82.934372	-149.7935
2720.000000	82.749130	-150.3985
2800.000000	82.559624	-150.7500
2900.000000	82.369865	-150.7456
3000.000000	82.245323	-150.3753
3070.000000	82.200333	-149.9706
3150.000000	82.192734	-149.4556
3250.000000	82.244614	-148.7615
3350.000000	82.364685	-148.1122
3450.000000	82.555519	-147.6009
3550.000000	82.814774	-147.3216
3650.000000	83.142082	-147.4378
3750.000000	83.530945	-148.0905
3870.000000	84.058807	-149.8794
4000.000000	84.643593	-153.4987
4120.000000	85.084419	-158.7708
4250.000000	85.239288	-166.4873
4370.000000	84.876877	-174.1984
4500.000000	83.992760	179.8475
4620.000000	83.123917	177.1419
4750.000000	82.265411	175.1099
4870.000000	81.435715	173.9668
5000.000000	80.516823	174.0355
5150.000000	79.531662	175.8375
5300.000000	78.695534	178.9286
5450.000000	78.052307	-176.9707
5600.000000	77.627548	-172.2110
5800.000000	77.463333	-165.5328
6000.000000	77.809875	-159.8260
6150.000000	78.393326	-157.6031
6300.000000	79.101364	-158.7167
6500.000000	79.489784	-166.4095
6700.000000	78.443993	-174.4615
6900.000000	76.663696	-174.4361
7100.000000	75.280861	-167.2834
7300.000000	74.686058	-157.3935
7500.000000	74.757736	-147.3552
7750.000000	75.637001	-136.4797
8000.000000	77.241760	-129.2299
8250.000000	79.362701	-127.9292
8500.000000	81.409492	-135.3523
8750.000000	82.285156	-149.7687
9000.000000	81.750671	-161.9814
9250.000000	80.869102	-167.6330
9500.000000	80.426926	-169.8244
9750.000000	80.586380	-173.1062
10000.000000	80.928192	178.0797
10300.000000	80.081894	160.5681
10600.000000	77.422302	148.5926
10900.000000	74.187683	149.9193
11200.000000	72.735176	162.5993
11500.000000	73.226357	168.9374
11800.000000	73.769859	167.5610
12200.000000	74.484108	161.2617
12500.000000	74.810379	153.7687
12800.000000	75.214096	144.9555
13200.000000	75.819077	127.0468
13600.000000	75.222832	100.5542
14000.000000	72.612656	77.3085
14500.000000	68.659378	62.8264
15000.000000	65.975365	55.2373
15500.000000	64.480965	40.7226
16000.000000	62.046608	14.9205
16500.000000	58.084290	-10.1318
17000.000000	54.710449	-25.5118
17500.000000	54.195095	-47.3232
18000.000000	55.764099	-84.3516
18500.000000	58.116539	-138.4441
19000.000000	59.550865	151.2812
19500.000000	58.874596	70.7940
