* Measurement data measured by REW V5.20 Beta 59
* Source: Headset (USB-C to 3.5mm Headphone Jack Adapter), MICROPHONE (Master Volume), R, volume: 0.169. Timing signal peak level -63.1 dBFS, measurement signal peak level -31.7 dBFS
* Format: 512k Log Swept Sine, 1 sweep at -6.0 dBFS using an acoustic timing reference
* Dated: Sep 10, 2020 1:12:06 PM
* REW Settings:
*  C-weighting compensation: Off
*  Target level: 75.0 dB
* Note: ; Delay 0.0207 ms (7.1 mm, 0.28 in) using estimated IR delay relative to Acoustic reference on HEADPHONE R with no timing offset
* Measurement: 64 Audio Nio - L M15
* Smoothing: 1/48 octave
* Frequency Step: 1/24 octave
* Start Frequency: 20.600 Hz
*
* Freq(Hz)	SPL(dB)	Phase(degrees)
20.600000	83.410767	56.6581
21.200001	83.560364	54.5938
21.799999	83.703476	52.5379
22.400000	83.825699	50.5118
23.000000	83.927208	48.5506
23.600000	84.035858	46.6534
24.299999	84.166435	44.5238
25.000000	84.270775	42.4416
25.799999	84.370728	40.1454
26.500000	84.471886	38.1987
27.200001	84.564636	36.3774
28.000000	84.638123	34.2572
29.000000	84.747673	31.7091
30.000000	84.824272	29.2940
30.700001	84.886971	27.6286
31.500000	84.946548	25.8206
32.500000	84.998360	23.5986
33.500000	85.057434	21.4482
34.500000	85.097710	19.3660
35.500000	85.134453	17.3862
36.500000	85.178505	15.4871
37.500000	85.205917	13.5618
38.700001	85.226044	11.3537
40.000000	85.245277	9.1055
41.200001	85.261856	7.0253
42.500000	85.279930	5.0114
43.700001	85.270256	3.0145
45.000000	85.268661	1.0634
46.200001	85.266922	-0.7320
47.500000	85.261292	-2.6017
48.700001	85.244293	-4.3532
50.000000	85.218857	-6.1157
51.500000	85.182648	-8.1320
53.000000	85.159630	-10.0451
54.500000	85.136169	-11.9056
56.000000	85.088806	-13.6870
58.000000	85.048172	-16.0427
60.000000	84.980400	-18.4106
61.500000	84.939552	-19.9278
63.000000	84.896027	-21.5451
65.000000	84.835770	-23.6213
67.000000	84.759743	-25.5443
69.000000	84.690292	-27.4786
71.000000	84.616264	-29.3697
73.000000	84.540489	-31.2049
75.000000	84.464691	-32.9627
77.500000	84.365448	-35.0763
80.000000	84.271820	-37.1259
82.500000	84.170670	-39.1242
85.000000	84.070328	-41.0408
87.500000	83.965172	-42.9096
90.000000	83.895393	-44.7280
92.500000	83.761276	-46.4566
95.000000	83.658188	-48.1433
97.500000	83.554924	-49.7674
100.000000	83.464050	-51.3657
103.000000	83.329506	-53.2482
106.000000	83.214539	-55.0724
109.000000	83.098152	-56.8441
112.000000	82.974037	-58.5561
115.000000	82.857620	-60.2099
118.000000	82.741974	-61.8229
122.000000	82.589569	-63.8756
125.000000	82.475479	-65.4043
128.000000	82.367752	-66.8834
132.000000	82.218964	-68.7800
136.000000	82.077759	-70.6352
140.000000	81.935730	-72.4166
145.000000	81.759102	-74.5668
150.000000	81.591614	-76.6176
155.000000	81.434792	-78.6082
160.000000	81.270798	-80.5666
165.000000	81.119568	-82.4641
170.000000	80.970230	-84.2272
175.000000	80.826309	-86.0088
180.000000	80.680969	-87.7430
185.000000	80.549355	-89.3577
190.000000	80.416000	-90.9736
195.000000	80.288857	-92.5269
200.000000	80.162865	-94.0482
206.000000	80.016045	-95.8049
212.000000	79.879059	-97.5323
218.000000	79.746506	-99.2181
224.000000	79.615929	-100.8324
230.000000	79.494339	-102.3936
236.000000	79.373871	-103.9154
243.000000	79.237656	-105.6486
250.000000	79.109116	-107.3519
258.000000	78.970848	-109.2096
265.000000	78.853394	-110.7808
272.000000	78.741554	-112.3047
280.000000	78.620499	-114.0162
290.000000	78.475998	-116.0578
300.000000	78.341736	-118.0222
307.000000	78.247971	-119.4089
315.000000	78.150192	-120.8798
325.000000	78.034775	-122.6897
335.000000	77.923157	-124.4395
345.000000	77.822189	-126.1334
355.000000	77.724075	-127.7711
365.000000	77.631966	-129.3578
375.000000	77.545380	-130.8906
387.000000	77.447662	-132.6809
400.000000	77.345848	-134.5232
412.000000	77.262260	-136.1905
425.000000	77.176620	-137.9180
437.000000	77.103424	-139.4682
450.000000	77.026726	-141.0663
462.000000	76.962952	-142.5102
475.000000	76.898270	-143.9990
487.000000	76.838776	-145.3564
500.000000	76.781624	-146.7503
515.000000	76.719742	-148.3057
530.000000	76.661697	-149.8062
545.000000	76.609711	-151.2498
560.000000	76.559448	-152.6114
580.000000	76.501381	-154.3513
600.000000	76.448593	-156.0143
615.000000	76.411522	-157.1818
630.000000	76.381180	-158.3185
650.000000	76.344017	-159.7541
670.000000	76.306023	-161.1117
690.000000	76.276764	-162.2905
710.000000	76.259758	-163.4437
730.000000	76.248764	-164.5394
750.000000	76.243088	-165.5414
775.000000	76.250481	-166.6574
800.000000	76.276413	-167.7039
825.000000	76.315804	-168.6673
850.000000	76.369690	-169.5490
875.000000	76.441238	-170.3704
900.000000	76.530121	-171.1604
925.000000	76.642181	-171.9391
950.000000	76.768074	-172.6856
975.000000	76.910568	-173.4838
1000.000000	77.069504	-174.3158
1030.000000	77.278763	-175.3972
1060.000000	77.497780	-176.5860
1090.000000	77.725143	-177.9061
1120.000000	77.954987	-179.3436
1150.000000	78.181702	179.0855
1180.000000	78.399155	177.4204
1220.000000	78.672630	175.0753
1250.000000	78.859161	173.2507
1280.000000	79.031242	171.3801
1320.000000	79.235916	168.8752
1360.000000	79.415054	166.4237
1400.000000	79.566750	164.0158
1450.000000	79.730072	161.1385
1500.000000	79.868164	158.4299
1550.000000	79.992783	155.9343
1600.000000	80.106018	153.6018
1650.000000	80.219902	151.4500
1700.000000	80.335754	149.4285
1750.000000	80.459885	147.5190
1800.000000	80.591507	145.6718
1850.000000	80.730927	143.8393
1900.000000	80.876312	142.0122
1950.000000	81.024773	140.1449
2000.000000	81.172920	138.2225
2060.000000	81.341835	135.8286
2120.000000	81.493813	133.3269
2180.000000	81.616318	130.7233
2240.000000	81.705009	128.0798
2300.000000	81.752411	125.4491
2360.000000	81.760178	122.9034
2430.000000	81.724083	120.1114
2500.000000	81.648956	117.5546
2580.000000	81.529480	114.9692
2650.000000	81.406738	112.9940
2720.000000	81.273796	111.2882
2800.000000	81.120773	109.6045
2900.000000	80.934692	107.8728
3000.000000	80.764587	106.4852
3070.000000	80.658730	105.6869
3150.000000	80.552505	104.9232
3250.000000	80.447128	104.1533
3350.000000	80.373596	103.5698
3450.000000	80.339287	103.1396
3550.000000	80.353363	102.8238
3650.000000	80.428894	102.5697
3750.000000	80.576286	102.2691
3870.000000	80.886230	101.6149
4000.000000	81.328400	99.8140
4120.000000	81.766006	96.9540
4250.000000	82.163162	92.7358
4370.000000	82.431244	88.3774
4500.000000	82.674454	83.5482
4620.000000	82.916779	78.8599
4750.000000	83.230957	72.9619
4870.000000	83.530334	65.9167
5000.000000	83.633049	55.6475
5150.000000	82.867249	41.7939
5300.000000	81.037308	33.3214
5450.000000	79.292358	33.0140
5600.000000	78.219856	35.9964
5800.000000	77.442909	40.1234
6000.000000	77.006737	43.8130
6150.000000	76.832520	46.3587
6300.000000	76.738579	48.6380
6500.000000	76.634079	52.0748
6700.000000	76.823761	56.8388
6900.000000	77.451096	60.6575
7100.000000	78.334122	62.1099
7300.000000	79.294090	60.4282
7500.000000	79.970924	55.1321
7750.000000	80.015839	47.5542
8000.000000	79.496239	41.9236
8250.000000	78.736984	39.9358
8500.000000	78.170151	40.7608
8750.000000	77.915833	42.8260
9000.000000	78.016571	44.1599
9250.000000	78.104050	44.4276
9500.000000	78.219856	44.9254
9750.000000	78.505966	45.6835
10000.000000	79.056175	45.5148
10300.000000	79.966080	42.0578
10600.000000	80.713112	32.0620
10900.000000	80.216385	17.1711
11200.000000	78.282288	6.1152
11500.000000	75.819382	2.5304
11800.000000	73.453430	4.6948
12200.000000	70.765808	13.0636
12500.000000	69.337692	22.6251
12800.000000	68.636459	30.3054
13200.000000	67.766853	37.6205
13600.000000	67.334335	42.9083
14000.000000	67.245033	43.3012
14500.000000	67.035141	36.1273
15000.000000	66.536736	24.8757
15500.000000	66.271202	11.4963
16000.000000	66.697762	-4.5123
16500.000000	67.026108	-24.5469
17000.000000	69.001968	-34.4470
17500.000000	73.690994	-68.8313
18000.000000	76.916588	-133.8749
18500.000000	75.162018	141.0951
19000.000000	70.415024	64.3542
19500.000000	63.685135	-25.4559
