* Measurement data measured by REW V5.20 Beta 31
* Source: IEC-711 (3- USB Sound Device        ), MICROPHONE (Master Volume), R, volume: 0.530
* Format: 1M Log Swept Sine, 1 sweep at 0.0 dBFS With no timing reference
* Dated: Jan 7, 2020 8:02:24 PM
* REW Settings:
*  C-weighting compensation: Off
*  Target level: 75.0 dB
* Note: ; 
* Measurement: NiceHCK NX7 Pro - R
* Smoothing: 1/48 octave
* Frequency Step: 1/24 octave
* Start Frequency: 20.600 Hz
*
* Freq(Hz)	SPL(dB)	Phase(degrees)
20.600000	84.650269	-136.8126
21.200001	84.703346	-137.1230
21.799999	84.723557	-137.4769
22.400000	84.717674	-137.8737
23.000000	84.697365	-138.2558
23.600000	84.684006	-138.5871
24.299999	84.697884	-139.0008
25.000000	84.730812	-139.5730
25.799999	84.751488	-140.2697
26.500000	84.762207	-140.6536
27.200001	84.792503	-140.8852
28.000000	84.828384	-141.2027
29.000000	84.822815	-141.4683
30.000000	84.814842	-141.4492
30.700001	84.813560	-141.5347
31.500000	84.788490	-141.6918
32.500000	84.754944	-141.7500
33.500000	84.749100	-141.9069
34.500000	84.727608	-142.1284
35.500000	84.711258	-142.1356
36.500000	84.713806	-142.1276
37.500000	84.702850	-142.1195
38.700001	84.673309	-142.0120
40.000000	84.632996	-141.8347
41.200001	84.594406	-141.7039
42.500000	84.552505	-141.5711
43.700001	84.517570	-141.4326
45.000000	84.482483	-141.1903
46.200001	84.459045	-140.9599
47.500000	84.395546	-140.6836
48.700001	84.357040	-140.1610
50.000000	84.321495	-139.9223
51.500000	84.260597	-139.5310
53.000000	84.198273	-139.1990
54.500000	84.150940	-138.6274
56.000000	84.110123	-138.1889
58.000000	84.026680	-137.3138
60.000000	83.991539	-136.2213
61.500000	83.935493	-136.1185
63.000000	83.863541	-135.4518
65.000000	83.778473	-134.7037
67.000000	83.711380	-133.9653
69.000000	83.649948	-133.0428
71.000000	83.575836	-132.2140
73.000000	83.501610	-131.2835
75.000000	83.435486	-130.3816
77.500000	83.349663	-129.2733
80.000000	83.250763	-128.1425
82.500000	83.165543	-126.9247
85.000000	83.060837	-125.7194
87.500000	82.980461	-124.5199
90.000000	82.862289	-123.6535
92.500000	82.818237	-121.9516
95.000000	82.747528	-120.6915
97.500000	82.665680	-119.4702
100.000000	82.577988	-118.3506
103.000000	82.470161	-116.7834
106.000000	82.365112	-115.2883
109.000000	82.255058	-113.8192
112.000000	82.142891	-112.2120
115.000000	82.040985	-110.4018
118.000000	81.913338	-108.9634
122.000000	81.766205	-106.9600
125.000000	81.658752	-105.2790
128.000000	81.534615	-103.5481
132.000000	81.405190	-101.3630
136.000000	81.249023	-99.1048
140.000000	81.091537	-96.7003
145.000000	80.906982	-93.8535
150.000000	80.729446	-90.9188
155.000000	80.560158	-87.9157
160.000000	80.384598	-84.8725
165.000000	80.221436	-81.8371
170.000000	80.064590	-78.8786
175.000000	79.888565	-75.7006
180.000000	79.756950	-72.5133
185.000000	79.585037	-69.6353
190.000000	79.438614	-66.4005
195.000000	79.299858	-63.0431
200.000000	79.167770	-59.8396
206.000000	79.036621	-56.1340
212.000000	78.911713	-52.4476
218.000000	78.769669	-48.8570
224.000000	78.611526	-45.0830
230.000000	78.470894	-41.4307
236.000000	78.303001	-37.7285
243.000000	78.163872	-33.4327
250.000000	77.992760	-29.1733
258.000000	77.797302	-24.1128
265.000000	77.666763	-19.7203
272.000000	77.529381	-15.3176
280.000000	77.337227	-10.3336
290.000000	77.175186	-4.0217
300.000000	77.018906	2.2002
307.000000	76.879974	6.6387
315.000000	76.758339	11.7120
325.000000	76.625641	17.8107
335.000000	76.512695	23.8788
345.000000	76.391457	29.7892
355.000000	76.246834	35.7151
365.000000	76.129982	41.7125
375.000000	75.992645	47.6653
387.000000	75.849319	54.5949
400.000000	75.712166	62.5073
412.000000	75.588463	69.5889
425.000000	75.445717	77.1596
437.000000	75.367409	84.2245
450.000000	75.274590	91.5948
462.000000	75.177643	98.3811
475.000000	75.090927	105.7840
487.000000	74.994911	112.4498
500.000000	74.915840	119.7442
515.000000	74.820755	128.2536
530.000000	74.753304	136.5007
545.000000	74.661194	144.8231
560.000000	74.582397	153.0501
580.000000	74.511726	163.8945
600.000000	74.430756	174.6586
615.000000	74.395157	-177.2540
630.000000	74.337486	-169.2496
650.000000	74.282928	-158.8950
670.000000	74.226608	-148.1893
690.000000	74.217415	-137.9656
710.000000	74.199257	-127.6857
730.000000	74.201363	-117.4660
750.000000	74.199371	-107.3856
775.000000	74.166977	-94.9865
800.000000	74.179306	-82.5171
825.000000	74.185547	-70.0138
850.000000	74.218132	-57.2773
875.000000	74.292549	-44.8191
900.000000	74.410583	-32.8156
925.000000	74.523895	-20.6335
950.000000	74.656380	-8.7133
975.000000	74.809250	3.2045
1000.000000	75.082047	15.0986
1030.000000	75.269150	28.6851
1060.000000	75.562561	42.2109
1090.000000	75.875679	55.4683
1120.000000	76.209618	68.2184
1150.000000	76.557938	80.7463
1180.000000	76.931488	92.7705
1220.000000	77.418015	108.2920
1250.000000	77.772995	119.5842
1280.000000	78.114899	130.5437
1320.000000	78.555145	144.7935
1360.000000	78.964661	158.7525
1400.000000	79.358528	172.1891
1450.000000	79.828552	-171.2740
1500.000000	80.279823	-155.1857
1550.000000	80.695755	-139.6253
1600.000000	81.090149	-124.5827
1650.000000	81.459877	-109.9550
1700.000000	81.795921	-95.6559
1750.000000	82.087463	-81.8348
1800.000000	82.338257	-68.3399
1850.000000	82.534027	-55.1571
1900.000000	82.677849	-42.2418
1950.000000	82.777687	-29.4363
2000.000000	82.842773	-16.7380
2060.000000	82.832893	-1.6964
2120.000000	82.774109	13.5084
2180.000000	82.674530	28.7014
2240.000000	82.557228	43.9471
2300.000000	82.412292	59.3116
2360.000000	82.267754	74.7990
2430.000000	82.104034	92.9391
2500.000000	81.941292	111.1332
2580.000000	81.791252	131.9224
2650.000000	81.683998	150.1364
2720.000000	81.616234	168.2747
2800.000000	81.576714	-171.2478
2900.000000	81.602455	-145.8516
3000.000000	81.712845	-121.2222
3070.000000	81.805595	-104.1943
3150.000000	81.975273	-85.2963
3250.000000	82.242737	-62.4834
3350.000000	82.537109	-40.7766
3450.000000	82.836975	-20.2344
3550.000000	83.083267	-0.9418
3650.000000	83.210052	17.2324
3750.000000	83.174126	34.4978
3870.000000	82.876083	54.9552
4000.000000	82.282646	77.8253
4120.000000	81.584755	100.1169
4250.000000	80.866699	126.0151
4370.000000	80.392448	151.1292
4500.000000	80.204849	178.6273
4620.000000	80.445564	-157.2288
4750.000000	80.950729	-135.3098
4870.000000	80.996231	-119.7188
5000.000000	80.123169	-102.9194
5150.000000	78.567894	-77.8195
5300.000000	77.264435	-48.2529
5450.000000	76.415726	-16.7866
5600.000000	75.967850	14.8284
5800.000000	75.865128	56.2516
6000.000000	76.277252	96.4868
6150.000000	76.890839	125.4637
6300.000000	77.758461	153.0117
6500.000000	79.357635	-172.8738
6700.000000	81.484848	-143.3549
6900.000000	83.992844	-121.8114
7100.000000	85.895157	-112.0140
7300.000000	85.714706	-107.2151
7500.000000	84.143616	-94.3591
7750.000000	82.314911	-67.9387
8000.000000	81.426826	-36.9213
8250.000000	81.479340	-7.3152
8500.000000	82.288155	17.3284
8750.000000	83.173668	32.0813
9000.000000	82.597649	38.5541
9250.000000	80.246231	49.6089
9500.000000	77.516235	69.5991
9750.000000	75.206299	94.9995
10000.000000	73.431221	122.6531
10300.000000	71.872711	156.9958
10600.000000	70.875008	-168.7046
10900.000000	70.388672	-134.9497
11200.000000	70.406715	-102.0298
11500.000000	71.008690	-70.7185
11800.000000	72.198090	-43.2380
12200.000000	74.155205	-12.0735
12500.000000	76.069740	6.1138
12800.000000	77.966827	17.9861
13200.000000	79.881599	26.8904
13600.000000	81.135338	31.8860
14000.000000	82.065170	34.3079
14500.000000	82.992615	32.0728
15000.000000	82.871124	21.2100
15500.000000	80.660568	15.5566
16000.000000	79.750473	25.1760
16500.000000	82.701195	19.0422
17000.000000	82.082275	-22.0315
17500.000000	77.125786	-48.4668
18000.000000	72.308426	-42.1667
18500.000000	71.397232	-44.9248
19000.000000	73.717361	-54.2800
19500.000000	72.697556	-102.1001
