* Measurement data measured by REW V5.20 Beta 31
* Source: IEC-711 (3- USB Sound Device        ), MICROPHONE (Master Volume), R, volume: 0.530
* Format: 1M Log Swept Sine, 1 sweep at 0.0 dBFS With no timing reference
* Dated: Jan 7, 2020 8:01:35 PM
* REW Settings:
*  C-weighting compensation: Off
*  Target level: 75.0 dB
* Note: ; 
* Measurement: NiceHCK NX7 Pro - L
* Smoothing: 1/48 octave
* Frequency Step: 1/24 octave
* Start Frequency: 20.600 Hz
*
* Freq(Hz)	SPL(dB)	Phase(degrees)
20.600000	83.360214	-128.5718
21.200001	83.435699	-128.8220
21.799999	83.492493	-129.1249
22.400000	83.526138	-129.5254
23.000000	83.541466	-129.9507
23.600000	83.556366	-130.3568
24.299999	83.587715	-130.8544
25.000000	83.629555	-131.4176
25.799999	83.675323	-132.0671
26.500000	83.709808	-132.5341
27.200001	83.743820	-132.8610
28.000000	83.786812	-133.1065
29.000000	83.838684	-133.3555
30.000000	83.869942	-133.6176
30.700001	83.875908	-133.7811
31.500000	83.876900	-133.9329
32.500000	83.876404	-134.1324
33.500000	83.877090	-134.2934
34.500000	83.890442	-134.4774
35.500000	83.889168	-134.6436
36.500000	83.897194	-134.6395
37.500000	83.902802	-134.7476
38.700001	83.869034	-134.6173
40.000000	83.884674	-134.4366
41.200001	83.858353	-134.4991
42.500000	83.829643	-134.2893
43.700001	83.817757	-134.1405
45.000000	83.803154	-133.9235
46.200001	83.792381	-133.7277
47.500000	83.767754	-133.4943
48.700001	83.747108	-133.2197
50.000000	83.713669	-132.9666
51.500000	83.686142	-132.5303
53.000000	83.628059	-132.2277
54.500000	83.591049	-131.7034
56.000000	83.548447	-131.1214
58.000000	83.527939	-130.6000
60.000000	83.480042	-130.5099
61.500000	83.399521	-129.3576
63.000000	83.389786	-128.7302
65.000000	83.346977	-127.9679
67.000000	83.265030	-127.2201
69.000000	83.212021	-126.3378
71.000000	83.174683	-125.5094
73.000000	83.125168	-124.6155
75.000000	83.065750	-123.8639
77.500000	82.996849	-122.7957
80.000000	82.941566	-121.5730
82.500000	82.846931	-120.4752
85.000000	82.775368	-119.4835
87.500000	82.763382	-118.4061
90.000000	82.918770	-118.0006
92.500000	82.610512	-115.9703
95.000000	82.503532	-114.4005
97.500000	82.415146	-113.4725
100.000000	82.338272	-112.2357
103.000000	82.263489	-110.6194
106.000000	82.138809	-109.1149
109.000000	82.036148	-107.6865
112.000000	81.937767	-106.0875
115.000000	81.828354	-104.4786
118.000000	81.729591	-102.9380
122.000000	81.585678	-100.7838
125.000000	81.483345	-99.1165
128.000000	81.380219	-97.4825
132.000000	81.252029	-95.2547
136.000000	81.104675	-92.9038
140.000000	80.965042	-90.6807
145.000000	80.793495	-87.8151
150.000000	80.633957	-84.9052
155.000000	80.467125	-81.9198
160.000000	80.304153	-78.9794
165.000000	80.139305	-75.9464
170.000000	79.984100	-72.8858
175.000000	79.820328	-69.7448
180.000000	79.708740	-66.7720
185.000000	79.521736	-63.5389
190.000000	79.360649	-60.3220
195.000000	79.231918	-57.2553
200.000000	79.095657	-54.1162
206.000000	78.933136	-50.4816
212.000000	78.753265	-46.6932
218.000000	78.598473	-42.7913
224.000000	78.451187	-38.9702
230.000000	78.279556	-35.1569
236.000000	78.124474	-31.3438
243.000000	77.979279	-26.9173
250.000000	77.804611	-22.3830
258.000000	77.603806	-17.3045
265.000000	77.441826	-12.5665
272.000000	77.269157	-7.7701
280.000000	77.153381	-2.3010
290.000000	77.040405	4.1421
300.000000	76.919495	10.0608
307.000000	76.781799	14.3265
315.000000	76.624802	19.2474
325.000000	76.452805	25.4936
335.000000	76.311958	31.8240
345.000000	76.145355	37.9628
355.000000	76.003593	44.4023
365.000000	75.858582	50.6070
375.000000	75.705872	56.6320
387.000000	75.557014	64.2231
400.000000	75.409271	72.2546
412.000000	75.284218	79.6536
425.000000	75.137405	87.5672
437.000000	75.037506	94.8998
450.000000	74.909424	102.6441
462.000000	74.800499	109.8668
475.000000	74.692871	117.6894
487.000000	74.645752	124.8269
500.000000	74.506927	132.8362
515.000000	74.410820	141.6628
530.000000	74.316605	150.5429
545.000000	74.246399	159.3999
560.000000	74.180313	168.0623
580.000000	74.098953	179.7321
600.000000	74.044151	-168.9429
615.000000	74.032082	-160.5334
630.000000	73.994690	-151.9319
650.000000	73.937309	-140.6896
670.000000	73.922897	-129.5266
690.000000	73.969048	-118.4834
710.000000	73.996330	-107.4928
730.000000	73.996147	-96.7282
750.000000	74.019814	-86.0310
775.000000	74.117027	-72.9175
800.000000	74.209724	-59.6328
825.000000	74.313095	-46.7493
850.000000	74.422577	-34.4171
875.000000	74.465347	-21.6268
900.000000	74.611954	-8.4476
925.000000	74.806221	3.7302
950.000000	74.933113	15.6613
975.000000	75.063583	27.9731
1000.000000	75.335815	39.9191
1030.000000	75.574821	54.4433
1060.000000	75.881729	68.4844
1090.000000	76.200363	81.8713
1120.000000	76.566902	95.2234
1150.000000	76.906738	108.0364
1180.000000	77.266708	120.4740
1220.000000	77.726738	136.7165
1250.000000	78.064552	148.3705
1280.000000	78.389908	159.8748
1320.000000	78.787827	174.8480
1360.000000	79.175629	-170.5523
1400.000000	79.535316	-156.1320
1450.000000	79.946304	-138.6721
1500.000000	80.335968	-121.5362
1550.000000	80.705643	-104.7371
1600.000000	81.053627	-88.4742
1650.000000	81.376091	-72.3539
1700.000000	81.675652	-56.7108
1750.000000	81.951843	-41.4078
1800.000000	82.199799	-26.4999
1850.000000	82.398766	-11.7922
1900.000000	82.563301	2.5930
1950.000000	82.682693	16.8045
2000.000000	82.777611	30.6749
2060.000000	82.828308	47.4709
2120.000000	82.829048	64.0685
2180.000000	82.771393	80.5940
2240.000000	82.691681	97.1939
2300.000000	82.584930	113.7493
2360.000000	82.460983	130.4141
2430.000000	82.316017	149.9541
2500.000000	82.167450	169.5403
2580.000000	82.021553	-167.9922
2650.000000	81.912224	-148.4033
2720.000000	81.837624	-128.8242
2800.000000	81.779839	-106.6694
2900.000000	81.778679	-79.2745
3000.000000	81.836601	-52.2074
3070.000000	81.937721	-33.7454
3150.000000	82.082291	-13.0383
3250.000000	82.315292	12.1289
3350.000000	82.575584	36.3204
3450.000000	82.842293	59.3929
3550.000000	83.069534	81.2852
3650.000000	83.199974	102.0753
3750.000000	83.178574	122.1036
3870.000000	82.922989	145.8235
4000.000000	82.390480	171.9812
4120.000000	81.781006	-162.6260
4250.000000	81.165344	-133.3396
4370.000000	80.862076	-105.0583
4500.000000	81.040558	-74.7634
4620.000000	81.646820	-50.1852
4750.000000	82.104965	-30.2090
4870.000000	81.544884	-14.2024
5000.000000	80.129333	7.2112
5150.000000	78.493996	38.2877
5300.000000	77.290398	72.3182
5450.000000	76.516113	107.3003
5600.000000	76.099594	142.3115
5800.000000	76.134109	-171.1604
6000.000000	76.608604	-128.2234
6150.000000	77.123016	-96.5823
6300.000000	77.933044	-66.0491
6500.000000	79.427460	-28.3597
6700.000000	81.353020	4.2148
6900.000000	83.337410	28.9211
7100.000000	84.477577	45.0792
7300.000000	84.034645	59.9153
7500.000000	82.709656	80.9351
7750.000000	81.201691	114.5669
8000.000000	80.432297	151.9141
8250.000000	80.458778	-171.5969
8500.000000	81.205231	-138.8489
8750.000000	82.302513	-113.7490
9000.000000	82.682823	-98.3145
9250.000000	81.312134	-84.8328
9500.000000	78.905540	-63.9429
9750.000000	76.530563	-36.2104
10000.000000	74.600456	-4.9370
10300.000000	72.868111	34.6416
10600.000000	71.662224	74.7019
10900.000000	71.025238	114.7368
11200.000000	70.830788	153.5039
11500.000000	71.044212	-168.1567
11800.000000	72.040550	-131.6804
12200.000000	74.083557	-90.0151
12500.000000	75.927353	-64.3115
12800.000000	77.839386	-44.1953
13200.000000	79.994530	-25.0693
13600.000000	81.445312	-11.0513
14000.000000	82.484283	0.3828
14500.000000	83.663383	10.4038
15000.000000	84.282005	9.6072
15500.000000	82.379715	8.2397
16000.000000	81.295700	21.1077
16500.000000	81.356911	15.8347
17000.000000	78.720161	6.3735
17500.000000	74.352829	13.0593
18000.000000	73.641922	27.6433
18500.000000	73.962029	29.6660
19000.000000	73.639755	14.4746
19500.000000	74.065262	2.8213
