* Measurement data measured by REW V5.20
* Source: Headset (USB-C to 3.5mm Headphone Jack Adapter), MICROPHONE (Master Volume), R, volume: 0.260
* Format: 512k Log Swept Sine, 1 sweep at 0.0 dBFS with no timing reference
* Dated: May 4, 2022 1:22:07 PM
* REW Settings:
*  C-weighting compensation: Off
*  Target level: 75.0 dB
* Note: ; 
* Measurement: P1 Max Giant Panda R
* Smoothing: 1/48 octave
* Frequency Step: 1/24 octave
* Start Frequency: 20.600 Hz
*
* Freq(Hz)	SPL(dB)	Phase(degrees)
20.600000	82.406342	-114.3692
21.200001	82.495148	-116.2501
21.799999	82.606903	-117.8796
22.400000	82.706924	-119.3500
23.000000	82.772614	-120.9551
23.600000	82.793648	-122.6087
24.299999	82.826172	-124.3342
25.000000	82.904060	-125.5431
25.799999	82.911720	-127.1635
26.500000	82.930626	-129.0275
27.200001	82.978455	-130.3800
28.000000	82.974014	-131.9783
29.000000	82.966301	-133.8887
30.000000	82.984390	-135.3553
30.700001	82.998581	-136.4262
31.500000	82.994873	-137.8248
32.500000	82.988487	-139.3513
33.500000	82.917503	-140.9452
34.500000	82.998436	-142.4630
35.500000	83.020325	-143.7579
36.500000	82.982712	-145.0847
37.500000	82.988419	-146.2350
38.700001	82.975876	-147.8931
40.000000	82.972755	-149.2346
41.200001	82.961082	-150.4943
42.500000	82.982529	-151.9092
43.700001	82.898705	-153.2064
45.000000	82.863983	-153.8665
46.200001	82.874786	-155.3325
47.500000	82.868393	-156.3604
48.700001	82.889877	-157.6204
50.000000	82.837921	-158.7443
51.500000	82.818420	-159.8018
53.000000	82.759216	-160.6258
54.500000	82.697144	-161.6769
56.000000	82.741127	-162.9140
58.000000	82.660858	-164.4388
60.000000	82.675354	-165.1626
61.500000	82.638191	-166.2612
63.000000	82.596977	-167.1756
65.000000	82.561249	-168.0258
67.000000	82.525650	-169.2504
69.000000	82.464455	-170.2901
71.000000	82.404892	-171.2243
73.000000	82.366920	-172.0053
75.000000	82.339828	-172.8446
77.500000	82.276505	-173.8312
80.000000	82.221695	-175.0319
82.500000	82.158340	-175.7647
85.000000	82.104004	-176.6693
87.500000	82.041214	-177.5367
90.000000	81.972717	-178.1901
92.500000	81.899017	-178.9547
95.000000	81.829346	-179.6475
97.500000	81.781105	179.5352
100.000000	81.719437	179.0818
103.000000	81.636368	178.1172
106.000000	81.571136	177.3631
109.000000	81.479698	176.9211
112.000000	81.437904	176.1798
115.000000	81.358215	175.4926
118.000000	81.290298	174.9692
122.000000	81.204384	174.2075
125.000000	81.134506	173.7173
128.000000	81.068176	173.3231
132.000000	80.950333	172.6176
136.000000	80.875847	172.1887
140.000000	80.784149	171.5543
145.000000	80.675682	171.1079
150.000000	80.563980	170.6118
155.000000	80.439629	170.0815
160.000000	80.328354	169.6494
165.000000	80.220543	169.3516
170.000000	80.105011	168.8902
175.000000	80.005463	168.4747
180.000000	79.882721	168.2654
185.000000	79.787323	168.1102
190.000000	79.675934	167.8215
195.000000	79.576111	167.7387
200.000000	79.454842	167.6257
206.000000	79.328781	167.4033
212.000000	79.210342	167.3428
218.000000	79.086739	167.2715
224.000000	78.967072	167.2227
230.000000	78.850304	167.2470
236.000000	78.735283	167.2802
243.000000	78.599442	167.3807
250.000000	78.473366	167.5097
258.000000	78.319321	167.6907
265.000000	78.199707	167.8719
272.000000	78.075531	168.1310
280.000000	77.938202	168.4429
290.000000	77.770081	168.8897
300.000000	77.620392	169.3766
307.000000	77.498695	169.7360
315.000000	77.369377	170.2146
325.000000	77.222626	170.8516
335.000000	77.083214	171.6254
345.000000	76.924278	172.3532
355.000000	76.799332	173.1959
365.000000	76.672218	174.0605
375.000000	76.538536	174.8824
387.000000	76.405830	176.1048
400.000000	76.273018	177.4606
412.000000	76.173256	178.8209
425.000000	76.078529	-179.6762
437.000000	75.991653	-178.1826
450.000000	75.923500	-176.5864
462.000000	75.885262	-175.0062
475.000000	75.870956	-173.3198
487.000000	75.883087	-171.7410
500.000000	75.919685	-170.0699
515.000000	75.978867	-168.2380
530.000000	76.081924	-166.4756
545.000000	76.203621	-164.9005
560.000000	76.353043	-163.5285
580.000000	76.560005	-161.9762
600.000000	76.770172	-160.7878
615.000000	76.924797	-160.0753
630.000000	77.070602	-159.4809
650.000000	77.243393	-158.8720
670.000000	77.391411	-158.3577
690.000000	77.524948	-157.9142
710.000000	77.635826	-157.5675
730.000000	77.735443	-157.0979
750.000000	77.821320	-156.6778
775.000000	77.923203	-156.0535
800.000000	78.025497	-155.3473
825.000000	78.127808	-154.6182
850.000000	78.236504	-153.8382
875.000000	78.365173	-153.0521
900.000000	78.500000	-152.2694
925.000000	78.660645	-151.5516
950.000000	78.830795	-150.9400
975.000000	79.015511	-150.4565
1000.000000	79.202423	-150.1695
1030.000000	79.423904	-150.0807
1060.000000	79.614059	-150.3022
1090.000000	79.754440	-150.6768
1120.000000	79.832153	-151.0140
1150.000000	79.871399	-151.0276
1180.000000	79.907913	-150.6934
1220.000000	80.003342	-149.9005
1250.000000	80.119530	-149.2870
1280.000000	80.258423	-148.7383
1320.000000	80.469543	-148.2062
1360.000000	80.692520	-147.9188
1400.000000	80.911026	-147.8034
1450.000000	81.170547	-147.8810
1500.000000	81.411911	-148.1027
1550.000000	81.641830	-148.3836
1600.000000	81.869987	-148.7435
1650.000000	82.096451	-149.1683
1700.000000	82.329788	-149.7204
1750.000000	82.561691	-150.4172
1800.000000	82.805046	-151.2689
1850.000000	83.065208	-152.3934
1900.000000	83.334229	-153.9872
1950.000000	83.564774	-156.2893
2000.000000	83.686981	-159.1663
2060.000000	83.636261	-162.8063
2120.000000	83.376312	-165.7621
2180.000000	83.025253	-167.3793
2240.000000	82.732086	-167.8199
2300.000000	82.549530	-167.8828
2360.000000	82.435600	-168.0898
2430.000000	82.308830	-168.5800
2500.000000	82.153015	-169.0559
2580.000000	81.968658	-169.3427
2650.000000	81.815414	-169.4465
2720.000000	81.666016	-169.4301
2800.000000	81.512054	-169.2370
2900.000000	81.374290	-168.8716
3000.000000	81.270729	-168.8348
3070.000000	81.155396	-168.9544
3150.000000	80.986862	-168.7856
3250.000000	80.817139	-168.1316
3350.000000	80.692886	-167.5059
3450.000000	80.570328	-166.8527
3550.000000	80.473152	-166.0232
3650.000000	80.411491	-165.3131
3750.000000	80.315926	-164.5712
3870.000000	80.285034	-162.8440
4000.000000	80.503868	-161.7651
4120.000000	80.709473	-162.4177
4250.000000	80.769112	-164.4281
4370.000000	80.529472	-166.6402
4500.000000	80.016037	-167.0216
4620.000000	79.697998	-165.5716
4750.000000	79.553757	-163.9892
4870.000000	79.534744	-163.1675
5000.000000	79.461746	-163.2157
5150.000000	79.256569	-163.0211
5300.000000	79.053383	-162.7298
5450.000000	78.805771	-162.3580
5600.000000	78.535233	-161.7303
5800.000000	78.168640	-160.5749
6000.000000	77.794197	-159.2982
6150.000000	77.486534	-158.1968
6300.000000	77.124870	-156.8163
6500.000000	76.612816	-153.6992
6700.000000	76.280701	-149.2744
6900.000000	76.142525	-144.7658
7100.000000	76.182640	-140.0690
7300.000000	76.393539	-135.9336
7500.000000	76.767502	-131.8984
7750.000000	77.595650	-128.5058
8000.000000	78.532547	-127.8406
8250.000000	79.544754	-129.5147
8500.000000	80.583443	-132.5467
8750.000000	82.368027	-140.8566
9000.000000	82.593468	-163.1005
9250.000000	80.624794	-176.9296
9500.000000	78.646500	179.6396
9750.000000	77.331413	-179.0222
10000.000000	76.720642	-176.3562
10300.000000	76.745674	-175.3782
10600.000000	76.949974	-178.5861
10900.000000	77.003593	176.2401
11200.000000	76.889626	169.5331
11500.000000	76.534302	162.9993
11800.000000	76.178268	156.4769
12200.000000	75.460846	146.1876
12500.000000	74.486145	139.0876
12800.000000	73.394859	134.8632
13200.000000	72.315903	131.5717
13600.000000	71.632950	128.4041
14000.000000	71.394470	125.0961
14500.000000	72.174942	116.7105
15000.000000	73.369865	94.6588
15500.000000	73.356918	62.3929
16000.000000	72.296295	27.7549
16500.000000	70.898262	-7.2732
17000.000000	69.719521	-43.5272
17500.000000	69.140228	-83.0913
18000.000000	69.271782	-129.5206
18500.000000	69.733688	173.4863
19000.000000	69.937988	104.2413
19500.000000	69.362831	16.6774
