* Measurement data measured by REW V5.20 Beta 59
* Source: Headset (USB-C to 3.5mm Headphone Jack Adapter), MICROPHONE (Master Volume), R, volume: 0.169
* Format: 512k Log Swept Sine, 1 sweep at -6.0 dBFS with no timing reference
* Dated: Sep 19, 2020 2:19:58 PM
* REW Settings:
*  C-weighting compensation: Off
*  Target level: 75.0 dB
* Note: ; 
* Measurement: SA6 R
* Smoothing: 1/48 octave
* Frequency Step: 1/24 octave
* Start Frequency: 20.600 Hz
*
* Freq(Hz)	SPL(dB)	Phase(degrees)
20.600000	84.053665	-126.5312
21.200001	84.129532	-128.3943
21.799999	84.177208	-130.3534
22.400000	84.189240	-132.0392
23.000000	84.185883	-133.5211
23.600000	84.237030	-135.1192
24.299999	84.318680	-137.1215
25.000000	84.336472	-139.1150
25.799999	84.283813	-140.9050
26.500000	84.271141	-142.6148
27.200001	84.332214	-144.0669
28.000000	84.290726	-145.7337
29.000000	84.272057	-148.3541
30.000000	84.236473	-150.2700
30.700001	84.255859	-151.7174
31.500000	84.269821	-153.2684
32.500000	84.273018	-155.3235
33.500000	84.286224	-157.1442
34.500000	84.282280	-158.9713
35.500000	84.268379	-160.6707
36.500000	84.264175	-162.3575
37.500000	84.231041	-164.0127
38.700001	84.211349	-165.8573
40.000000	84.175537	-167.8781
41.200001	84.118279	-169.6079
42.500000	84.074860	-171.4262
43.700001	84.014961	-173.0668
45.000000	83.954483	-174.7873
46.200001	83.886948	-176.3375
47.500000	83.821213	-177.9539
48.700001	83.747101	-179.4092
50.000000	83.670975	179.0825
51.500000	83.572258	177.3919
53.000000	83.479561	175.7634
54.500000	83.370949	174.2267
56.000000	83.284195	172.6263
58.000000	83.236893	170.7300
60.000000	83.154892	168.8028
61.500000	83.110329	167.4793
63.000000	83.050377	166.1089
65.000000	82.967613	164.4275
67.000000	82.884323	162.7540
69.000000	82.797836	161.1678
71.000000	82.706367	159.6472
73.000000	82.616699	158.1783
75.000000	82.528152	156.7596
77.500000	82.408577	155.0310
80.000000	82.291763	153.3850
82.500000	82.169441	151.7811
85.000000	82.053070	150.2667
87.500000	81.927307	148.7573
90.000000	81.990105	146.5702
92.500000	81.691658	146.0314
95.000000	81.559013	144.7199
97.500000	81.429138	143.4636
100.000000	81.326012	142.2085
103.000000	81.210388	140.8481
106.000000	81.095558	139.4585
109.000000	81.000526	138.2158
112.000000	80.874260	136.8713
115.000000	80.775772	135.6790
118.000000	80.668633	134.4979
122.000000	80.533463	133.0013
125.000000	80.429062	131.9144
128.000000	80.328903	130.8670
132.000000	80.198853	129.5287
136.000000	80.071289	128.2431
140.000000	79.948921	127.0352
145.000000	79.796692	125.5411
150.000000	79.649933	124.1568
155.000000	79.511261	122.8290
160.000000	79.374496	121.5439
165.000000	79.245003	120.3322
170.000000	79.120689	119.1714
175.000000	79.000038	118.0777
180.000000	78.881927	116.9900
185.000000	78.772995	115.9880
190.000000	78.668243	115.0081
195.000000	78.570152	114.0566
200.000000	78.472900	113.1375
206.000000	78.363861	112.0938
212.000000	78.259697	111.1111
218.000000	78.161835	110.1349
224.000000	78.072556	109.2256
230.000000	77.979630	108.3339
236.000000	77.898590	107.4816
243.000000	77.810509	106.4919
250.000000	77.729301	105.5956
258.000000	77.641785	104.5854
265.000000	77.573494	103.7412
272.000000	77.510803	102.9370
280.000000	77.446861	102.0486
290.000000	77.374222	100.9832
300.000000	77.318314	99.9586
307.000000	77.275345	99.2816
315.000000	77.236542	98.5169
325.000000	77.196304	97.6350
335.000000	77.164886	96.7549
345.000000	77.143570	95.9214
355.000000	77.125572	95.1329
365.000000	77.112427	94.3608
375.000000	77.105949	93.5983
387.000000	77.108757	92.7438
400.000000	77.115334	91.8547
412.000000	77.128365	91.0599
425.000000	77.148537	90.2272
437.000000	77.175621	89.4800
450.000000	77.207855	88.6936
462.000000	77.243317	87.9870
475.000000	77.281532	87.2467
487.000000	77.322968	86.5779
500.000000	77.369888	85.8856
515.000000	77.426163	85.1025
530.000000	77.487015	84.3433
545.000000	77.548660	83.6017
560.000000	77.611023	82.8908
580.000000	77.695435	81.9974
600.000000	77.786247	81.1355
615.000000	77.857307	80.5149
630.000000	77.921585	79.9203
650.000000	78.011162	79.1658
670.000000	78.104126	78.4543
690.000000	78.196487	77.7885
710.000000	78.291451	77.1685
730.000000	78.385315	76.5963
750.000000	78.483147	76.0698
775.000000	78.606613	75.4639
800.000000	78.737190	74.9255
825.000000	78.875046	74.4446
850.000000	79.018532	73.9973
875.000000	79.170143	73.5896
900.000000	79.331444	73.1942
925.000000	79.504333	72.7868
950.000000	79.683914	72.3727
975.000000	79.871048	71.9136
1000.000000	80.062454	71.4031
1030.000000	80.298309	70.6975
1060.000000	80.533127	69.8949
1090.000000	80.762840	68.9940
1120.000000	80.983284	67.9975
1150.000000	81.190804	66.9348
1180.000000	81.384750	65.8171
1220.000000	81.615608	64.2855
1250.000000	81.770485	63.1319
1280.000000	81.911926	61.9960
1320.000000	82.081635	60.5369
1360.000000	82.232857	59.1591
1400.000000	82.370415	57.8687
1450.000000	82.530602	56.3695
1500.000000	82.684204	54.9888
1550.000000	82.836319	53.6801
1600.000000	82.988968	52.4240
1650.000000	83.138550	51.1830
1700.000000	83.286629	49.9331
1750.000000	83.427803	48.6903
1800.000000	83.563866	47.4699
1850.000000	83.699310	46.2542
1900.000000	83.837364	45.0139
1950.000000	83.975235	43.6961
2000.000000	84.108505	42.2904
2060.000000	84.251472	40.4633
2120.000000	84.365799	38.4882
2180.000000	84.442856	36.4282
2240.000000	84.477600	34.3213
2300.000000	84.467186	32.2421
2360.000000	84.410736	30.2676
2430.000000	84.295113	28.2042
2500.000000	84.142082	26.4529
2580.000000	83.934624	24.8341
2650.000000	83.733772	23.7686
2720.000000	83.524315	23.0775
2800.000000	83.292427	22.7538
2900.000000	83.041077	22.9767
3000.000000	82.864334	23.7607
3070.000000	82.797440	24.5278
3150.000000	82.784363	25.4632
3250.000000	82.851303	26.4813
3350.000000	82.969101	27.1667
3450.000000	83.096298	27.6216
3550.000000	83.235214	28.1103
3650.000000	83.421921	28.6710
3750.000000	83.680901	29.1869
3870.000000	84.106514	29.3787
4000.000000	84.692177	28.5529
4120.000000	85.304802	26.3921
4250.000000	85.959984	22.0128
4370.000000	86.415970	15.7209
4500.000000	86.503456	6.7124
4620.000000	86.019623	-2.1305
4750.000000	84.911163	-9.8245
4870.000000	83.578041	-13.7979
5000.000000	82.069725	-14.5858
5150.000000	80.486435	-11.7961
5300.000000	79.206841	-6.0666
5450.000000	78.329063	1.6801
5600.000000	77.914360	10.2651
5800.000000	78.069283	20.5311
6000.000000	78.295731	31.2280
6150.000000	79.454254	37.9876
6300.000000	80.773529	40.1342
6500.000000	82.294815	37.0119
6700.000000	83.067680	29.8306
6900.000000	83.085205	23.0048
7100.000000	82.778275	18.6462
7300.000000	82.487122	15.8412
7500.000000	82.233482	13.3774
7750.000000	81.905190	10.1886
8000.000000	81.461708	6.5571
8250.000000	80.804680	3.3877
8500.000000	80.032898	1.6642
8750.000000	79.315125	1.4986
9000.000000	78.773750	2.3696
9250.000000	78.452538	3.6666
9500.000000	78.424088	4.5840
9750.000000	78.696480	3.8699
10000.000000	79.113235	-0.6682
10300.000000	78.859550	-12.5164
10600.000000	76.953590	-21.3029
10900.000000	74.869293	-19.2939
11200.000000	73.770058	-12.5828
11500.000000	73.542442	-6.7083
11800.000000	73.820183	-3.8718
12200.000000	74.422020	-5.7965
12500.000000	74.767334	-10.9451
12800.000000	74.877213	-18.3221
13200.000000	74.731094	-29.7905
13600.000000	74.564384	-42.8463
14000.000000	74.532333	-59.6361
14500.000000	74.146744	-88.5708
15000.000000	72.278511	-120.1174
15500.000000	70.020775	-143.8483
16000.000000	68.787674	-167.3735
16500.000000	66.523224	162.9040
17000.000000	63.742950	144.7016
17500.000000	62.455032	126.6882
18000.000000	62.300323	100.9981
18500.000000	63.021107	58.4847
19000.000000	63.063740	-8.5846
19500.000000	61.418865	-100.3568
