* Measurement data measured by REW V5.20 Beta 49
* Source: IEC-60711 (USB Sound Device        ), MICROPHONE (Master Volume), R, volume: 0.250
* Format: 512k Log Swept Sine, 1 sweep at 0.0 dBFS with no timing reference
* Dated: Jun 12, 2020 2:42:34 PM
* REW Settings:
*  C-weighting compensation: Off
*  Target level: 75.0 dB
* Note: ; 
* Measurement: Moondrop SSR - R Fm
* Smoothing: 1/48 octave
* Frequency Step: 1/24 octave
* Start Frequency: 20.600 Hz
*
* Freq(Hz)	SPL(dB)	Phase(degrees)
20.600000	79.667023	-114.5760
21.200001	79.855034	-114.8230
21.799999	79.877930	-115.7415
22.400000	79.979683	-116.8901
23.000000	80.215858	-117.3425
23.600000	80.389969	-117.8289
24.299999	80.555115	-118.8369
25.000000	80.766510	-118.7205
25.799999	80.904343	-118.6033
26.500000	81.003662	-119.9594
27.200001	81.138390	-120.6823
28.000000	81.168938	-120.0530
29.000000	81.193954	-121.5648
30.000000	81.426300	-122.4956
30.700001	81.538086	-123.2193
31.500000	81.700134	-123.6649
32.500000	81.766991	-124.2538
33.500000	81.922028	-124.4578
34.500000	81.981140	-125.3185
35.500000	82.099586	-125.9864
36.500000	82.167831	-126.4773
37.500000	82.259140	-126.6830
38.700001	82.488480	-127.4161
40.000000	82.447906	-127.7531
41.200001	82.533646	-128.7437
42.500000	82.701912	-128.8783
43.700001	82.787354	-129.4603
45.000000	82.846962	-129.7385
46.200001	82.912903	-130.2172
47.500000	82.975807	-130.5448
48.700001	83.062241	-130.7893
50.000000	83.090225	-130.9985
51.500000	83.196045	-131.4218
53.000000	83.224510	-131.8544
54.500000	83.311012	-132.0844
56.000000	83.380997	-132.4676
58.000000	83.426186	-132.6793
60.000000	83.340897	-133.2314
61.500000	83.550148	-132.9839
63.000000	83.555107	-133.2254
65.000000	83.603165	-133.5446
67.000000	83.629089	-133.5779
69.000000	83.712311	-133.8621
71.000000	83.713081	-134.0264
73.000000	83.776062	-134.1128
75.000000	83.727455	-133.5384
77.500000	83.857330	-134.2945
80.000000	83.828583	-134.1203
82.500000	83.887413	-134.1260
85.000000	83.912766	-134.2245
87.500000	83.963005	-134.1664
90.000000	83.953545	-134.4822
92.500000	83.968918	-134.2105
95.000000	84.015213	-133.8697
97.500000	84.013390	-133.6562
100.000000	84.031868	-133.8576
103.000000	84.055138	-133.8736
106.000000	84.020935	-133.4928
109.000000	84.027229	-133.6790
112.000000	84.023438	-132.9739
115.000000	84.095558	-132.6122
118.000000	83.985832	-132.3373
122.000000	84.018227	-132.2312
125.000000	83.960205	-131.9625
128.000000	83.971390	-131.3917
132.000000	83.983719	-131.2031
136.000000	83.960464	-130.6552
140.000000	83.946106	-130.2028
145.000000	83.917084	-129.5734
150.000000	83.884094	-128.9582
155.000000	83.843246	-128.3080
160.000000	83.843918	-127.5602
165.000000	83.788811	-126.8684
170.000000	83.763725	-126.3519
175.000000	83.732254	-125.4409
180.000000	83.675720	-124.8459
185.000000	83.633568	-124.1387
190.000000	83.598038	-123.1723
195.000000	83.566170	-122.5428
200.000000	83.509773	-121.6465
206.000000	83.462250	-120.6285
212.000000	83.422897	-119.6494
218.000000	83.368866	-118.5769
224.000000	83.309441	-117.6454
230.000000	83.263512	-116.5953
236.000000	83.197357	-115.5366
243.000000	83.147316	-114.2960
250.000000	83.071533	-113.0173
258.000000	82.990158	-111.6158
265.000000	82.916138	-110.1342
272.000000	82.853867	-108.8511
280.000000	82.789352	-107.2886
290.000000	82.679276	-105.5304
300.000000	82.621933	-103.4165
307.000000	82.525482	-102.1551
315.000000	82.465729	-100.6895
325.000000	82.369591	-98.8490
335.000000	82.280678	-96.6455
345.000000	82.202019	-94.6593
355.000000	82.079620	-92.7242
365.000000	82.032700	-90.8800
375.000000	81.934319	-88.8832
387.000000	81.820496	-86.0343
400.000000	81.742096	-83.6015
412.000000	81.629425	-81.1232
425.000000	81.539474	-78.4515
437.000000	81.468872	-76.0139
450.000000	81.345161	-73.1992
462.000000	81.260872	-70.7894
475.000000	81.186340	-68.0551
487.000000	81.114792	-65.7112
500.000000	81.012985	-62.9303
515.000000	80.933159	-59.8770
530.000000	80.834160	-56.7540
545.000000	80.752853	-53.6060
560.000000	80.650070	-50.5894
580.000000	80.563126	-46.3337
600.000000	80.451378	-42.2269
615.000000	80.373833	-39.1697
630.000000	80.338364	-36.0854
650.000000	80.254684	-31.8113
670.000000	80.175232	-27.8453
690.000000	80.090279	-23.6091
710.000000	80.023544	-19.5304
730.000000	79.982773	-15.3408
750.000000	79.918999	-11.2426
775.000000	79.847885	-5.9137
800.000000	79.817413	-0.8347
825.000000	79.744270	4.3951
850.000000	79.780197	9.5700
875.000000	79.779419	14.8576
900.000000	79.796158	20.2149
925.000000	79.834656	25.4765
950.000000	79.924606	30.7411
975.000000	80.048424	35.9012
1000.000000	80.201462	40.5700
1030.000000	80.381348	47.2043
1060.000000	80.607353	53.0205
1090.000000	80.906563	58.5733
1120.000000	81.227631	63.9111
1150.000000	81.545647	68.7864
1180.000000	81.908173	73.3949
1220.000000	82.362511	79.0475
1250.000000	82.711929	82.7961
1280.000000	83.028534	86.3441
1320.000000	83.395996	90.5609
1360.000000	83.732857	94.5597
1400.000000	84.010399	98.3230
1450.000000	84.276749	102.9396
1500.000000	84.489784	107.8616
1550.000000	84.707863	113.0643
1600.000000	84.929375	118.3314
1650.000000	85.174103	123.4967
1700.000000	85.450920	128.4767
1750.000000	85.733025	133.3582
1800.000000	86.018784	138.1380
1850.000000	86.330368	142.7275
1900.000000	86.625801	147.2309
1950.000000	86.955765	151.5087
2000.000000	87.277184	155.5146
2060.000000	87.688660	160.4204
2120.000000	88.102928	165.0518
2180.000000	88.543365	169.3279
2240.000000	88.997093	173.3766
2300.000000	89.462883	177.0571
2360.000000	89.944649	-179.4948
2430.000000	90.527039	-175.9604
2500.000000	91.124405	-172.9312
2580.000000	91.818939	-170.1525
2650.000000	92.435249	-168.5807
2720.000000	93.010506	-167.7894
2800.000000	93.594810	-168.0114
2900.000000	94.099579	-169.4162
3000.000000	94.334702	-171.2897
3070.000000	94.340317	-172.4184
3150.000000	94.242386	-173.3977
3250.000000	94.017456	-174.0373
3350.000000	93.707916	-174.0119
3450.000000	93.365639	-173.3073
3550.000000	93.002716	-172.0167
3650.000000	92.654587	-170.2691
3750.000000	92.333855	-168.1656
3870.000000	91.994247	-165.2823
4000.000000	91.718216	-161.9188
4120.000000	91.491577	-158.7645
4250.000000	91.338875	-155.4411
4370.000000	91.266739	-152.4608
4500.000000	91.257797	-149.5275
4620.000000	91.303146	-147.1512
4750.000000	91.403099	-145.0859
4870.000000	91.535706	-143.6768
5000.000000	91.694748	-142.8265
5150.000000	91.887558	-142.8134
5300.000000	92.044449	-143.6878
5450.000000	92.123978	-145.4545
5600.000000	92.098717	-147.9871
5800.000000	91.841156	-151.9072
6000.000000	91.367157	-155.8093
6150.000000	90.887329	-158.2925
6300.000000	90.368805	-160.3389
6500.000000	89.668762	-162.3624
6700.000000	89.003876	-163.7192
6900.000000	88.412704	-164.8501
7100.000000	87.897308	-165.7088
7300.000000	87.554001	-166.9828
7500.000000	87.296837	-168.6992
7750.000000	87.118927	-172.0308
8000.000000	87.037117	-177.1817
8250.000000	86.918030	175.3700
8500.000000	86.593269	165.9932
8750.000000	85.935104	155.2597
9000.000000	84.898796	144.8639
9250.000000	83.625130	135.7354
9500.000000	82.212173	128.4008
9750.000000	80.830399	122.6287
10000.000000	79.520531	118.1275
10300.000000	78.119675	113.8058
10600.000000	76.927910	110.3868
10900.000000	75.943504	107.2688
11200.000000	75.143280	104.5586
11500.000000	74.591934	101.9242
11800.000000	74.274109	99.5461
12200.000000	74.368744	94.9442
12500.000000	74.847992	90.1006
12800.000000	75.619637	82.8197
13200.000000	76.783012	68.3459
13600.000000	77.867035	48.9420
14000.000000	78.731812	25.8685
14500.000000	79.458961	-7.4436
15000.000000	79.363243	-44.5455
15500.000000	78.332993	-81.0718
16000.000000	76.858627	-113.7045
16500.000000	75.392639	-143.0790
17000.000000	74.149155	-170.0572
17500.000000	73.194427	163.1303
18000.000000	72.492081	135.5727
18500.000000	72.061600	105.7759
19000.000000	72.092682	71.2358
19500.000000	71.855438	27.1693
