* Measurement data measured by REW V5.20 Beta 59
* Source: Headset (USB-C to 3.5mm Headphone Jack Adapter), MICROPHONE (Master Volume), R, volume: 0.258
* Format: 256k Log Swept Sine, 1 sweep at -6.0 dBFS with no timing reference
* Dated: Nov 23, 2020 12:15:03 PM
* REW Settings:
*  C-weighting compensation: Off
*  Target level: 75.0 dB
* Note: ; 
* Measurement: Tin T1 Plus - Final - R
* Smoothing: 1/48 octave
* Frequency Step: 1/24 octave
* Start Frequency: 20.600 Hz
*
* Freq(Hz)	SPL(dB)	Phase(degrees)
20.600000	80.573975	-75.0464
21.200001	80.892967	-76.9177
21.799999	81.194359	-78.7607
22.400000	81.454926	-80.4148
23.000000	81.676842	-81.7786
23.600000	81.889305	-82.9922
24.299999	82.151581	-84.6248
25.000000	82.412590	-86.6468
25.799999	82.682716	-88.9744
26.500000	82.902840	-90.6380
27.200001	83.118568	-91.9887
28.000000	83.367462	-93.4524
29.000000	83.681343	-95.6328
30.000000	83.943146	-98.0234
30.700001	84.103752	-99.4395
31.500000	84.297760	-100.9544
32.500000	84.513626	-102.9893
33.500000	84.704559	-104.7605
34.500000	84.921829	-106.4000
35.500000	85.120468	-108.1454
36.500000	85.295967	-109.9054
37.500000	85.448143	-111.5185
38.700001	85.642494	-113.1795
40.000000	85.830574	-115.2590
41.200001	85.987396	-116.9904
42.500000	86.153229	-118.8139
43.700001	86.271767	-120.3987
45.000000	86.426590	-122.1666
46.200001	86.563797	-123.7457
47.500000	86.686783	-125.2045
48.700001	86.801071	-126.6446
50.000000	86.901237	-128.2042
51.500000	87.027603	-129.8278
53.000000	87.126755	-131.5276
54.500000	87.223137	-133.0736
56.000000	87.319229	-134.5917
58.000000	87.424606	-136.5866
60.000000	87.535629	-138.4291
61.500000	87.601517	-139.7863
63.000000	87.667496	-141.0853
65.000000	87.741890	-142.7512
67.000000	87.801491	-144.3958
69.000000	87.873146	-145.9277
71.000000	87.922188	-147.4279
73.000000	87.971031	-148.8485
75.000000	88.011765	-150.2257
77.500000	88.049896	-151.9039
80.000000	88.090004	-153.5202
82.500000	88.126770	-155.0697
85.000000	88.143906	-156.5501
87.500000	88.163406	-157.8993
90.000000	88.162788	-159.3131
92.500000	88.185928	-160.6028
95.000000	88.185104	-161.8522
97.500000	88.179520	-163.0606
100.000000	88.178864	-164.2235
103.000000	88.169113	-165.5569
106.000000	88.151459	-166.8214
109.000000	88.133347	-168.0546
112.000000	88.107872	-169.1961
115.000000	88.079597	-170.3743
118.000000	88.052254	-171.4689
122.000000	88.014725	-172.8370
125.000000	87.978088	-173.8149
128.000000	87.937218	-174.7725
132.000000	87.887283	-176.0138
136.000000	87.827942	-177.1349
140.000000	87.771912	-178.2261
145.000000	87.692017	-179.5402
150.000000	87.609322	179.2607
155.000000	87.525162	178.1311
160.000000	87.436646	177.0359
165.000000	87.347542	176.0424
170.000000	87.256874	175.0789
175.000000	87.162926	174.1871
180.000000	87.071259	173.3300
185.000000	86.979935	172.5499
190.000000	86.883759	171.8195
195.000000	86.785805	171.1182
200.000000	86.691261	170.4578
206.000000	86.577126	169.7176
212.000000	86.460335	169.0375
218.000000	86.345833	168.4006
224.000000	86.232094	167.8257
230.000000	86.116608	167.2805
236.000000	86.006012	166.7693
243.000000	85.872253	166.2327
250.000000	85.741882	165.7556
258.000000	85.593246	165.2607
265.000000	85.465561	164.8721
272.000000	85.338181	164.5194
280.000000	85.194878	164.1733
290.000000	85.018173	163.8124
300.000000	84.847397	163.4997
307.000000	84.726654	163.3301
315.000000	84.593582	163.1815
325.000000	84.427071	163.0014
335.000000	84.267471	162.9121
345.000000	84.108559	162.8428
355.000000	83.956963	162.8409
365.000000	83.804306	162.8613
375.000000	83.657204	162.9383
387.000000	83.485588	163.0547
400.000000	83.300934	163.2491
412.000000	83.141716	163.4778
425.000000	82.966064	163.7645
437.000000	82.814316	164.0638
450.000000	82.651627	164.4283
462.000000	82.506287	164.8056
475.000000	82.353638	165.2401
487.000000	82.216232	165.6747
500.000000	82.072754	166.1812
515.000000	81.909920	166.7960
530.000000	81.755501	167.4392
545.000000	81.605682	168.1317
560.000000	81.461945	168.8371
580.000000	81.276382	169.8448
600.000000	81.100807	170.8918
615.000000	80.975250	171.7131
630.000000	80.854797	172.5593
650.000000	80.700676	173.7609
670.000000	80.553116	174.9691
690.000000	80.415276	176.2322
710.000000	80.288231	177.5364
730.000000	80.165070	178.8853
750.000000	80.054718	-179.7270
775.000000	79.928848	-177.9264
800.000000	79.815437	-176.0833
825.000000	79.722061	-174.1597
850.000000	79.645767	-172.2180
875.000000	79.588745	-170.2433
900.000000	79.551704	-168.2696
925.000000	79.531693	-166.3088
950.000000	79.521301	-164.4275
975.000000	79.508293	-162.6287
1000.000000	79.486534	-160.8485
1030.000000	79.412262	-158.4850
1060.000000	79.328011	-155.4377
1090.000000	79.331467	-151.4595
1120.000000	79.530724	-147.1379
1150.000000	79.927498	-143.3608
1180.000000	80.416016	-140.6075
1220.000000	81.087639	-138.3531
1250.000000	81.552238	-137.5136
1280.000000	81.962128	-137.1108
1320.000000	82.426659	-136.9835
1360.000000	82.806557	-137.0641
1400.000000	83.127579	-137.2009
1450.000000	83.462326	-137.2918
1500.000000	83.754036	-137.3064
1550.000000	84.023033	-137.2046
1600.000000	84.281403	-137.0224
1650.000000	84.537621	-136.8130
1700.000000	84.794968	-136.5793
1750.000000	85.058937	-136.3743
1800.000000	85.329025	-136.2324
1850.000000	85.606689	-136.1723
1900.000000	85.888458	-136.2334
1950.000000	86.173004	-136.4194
2000.000000	86.458519	-136.7583
2060.000000	86.794327	-137.3752
2120.000000	87.119331	-138.2407
2180.000000	87.425064	-139.3358
2240.000000	87.704887	-140.6592
2300.000000	87.952583	-142.1735
2360.000000	88.160194	-143.8387
2430.000000	88.349915	-145.9056
2500.000000	88.479713	-148.0144
2580.000000	88.559929	-150.3719
2650.000000	88.575325	-152.3051
2720.000000	88.549156	-154.0725
2800.000000	88.477028	-155.8106
2900.000000	88.350182	-157.5045
3000.000000	88.213821	-158.7061
3070.000000	88.125961	-159.2904
3150.000000	88.040886	-159.7705
3250.000000	87.959114	-160.1487
3350.000000	87.916107	-160.3351
3450.000000	87.918549	-160.4496
3550.000000	87.965828	-160.5809
3650.000000	88.059296	-160.8269
3750.000000	88.196312	-161.2667
3870.000000	88.413948	-162.2049
4000.000000	88.698502	-163.9641
4120.000000	88.976929	-166.4472
4250.000000	89.249275	-170.2900
4370.000000	89.407188	-175.0237
4500.000000	89.377289	178.7218
4620.000000	89.085693	172.4287
4750.000000	88.463821	165.9203
4870.000000	87.654160	160.8652
5000.000000	86.606018	156.8255
5150.000000	85.295731	154.1480
5300.000000	83.980782	153.3934
5450.000000	82.731667	154.1888
5600.000000	81.577888	156.1770
5800.000000	80.216400	160.2213
6000.000000	79.069809	165.3348
6150.000000	78.337883	169.6317
6300.000000	77.719482	174.1810
6500.000000	77.055489	-179.5246
6700.000000	76.568268	-173.1311
6900.000000	76.245384	-166.7318
7100.000000	76.102638	-160.4761
7300.000000	76.115402	-154.6899
7500.000000	76.258865	-149.2650
7750.000000	76.663689	-143.0863
8000.000000	77.363121	-137.8834
8250.000000	78.406868	-134.3668
8500.000000	79.824654	-133.5948
8750.000000	81.678467	-138.2555
9000.000000	83.300369	-152.6149
9250.000000	83.284470	-174.7932
9500.000000	81.319359	167.7505
9750.000000	78.800911	160.1233
10000.000000	76.567139	158.7169
10300.000000	74.445587	161.0400
10600.000000	72.863029	165.3287
10900.000000	71.724808	170.4394
11200.000000	70.968575	175.7466
11500.000000	70.563423	-179.1378
11800.000000	70.494415	-174.4838
12200.000000	70.955421	-169.6265
12500.000000	71.781235	-167.6279
12800.000000	73.118240	-168.0274
13200.000000	75.872574	-176.7674
13600.000000	78.634308	153.2082
14000.000000	77.199951	108.8230
14500.000000	72.132225	81.1125
15000.000000	68.295486	68.7236
15500.000000	65.762024	58.4787
16000.000000	64.161911	46.2984
16500.000000	63.359158	30.2435
17000.000000	63.326099	8.9479
17500.000000	64.079582	-19.0912
18000.000000	65.721260	-56.9406
18500.000000	68.123184	-110.6606
19000.000000	69.962212	171.2051
19500.000000	68.701660	73.1929
