* Measurement data measured by REW V5.20
* Source: Headset (USB-C to 3.5mm Headphone Jack Adapter), MICROPHONE (Master Volume), R, volume: 0.260
* Format: 512k Log Swept Sine, 1 sweep at 0.0 dBFS with no timing reference
* Dated: Feb 11, 2022 3:41:09 PM
* REW Settings:
*  C-weighting compensation: Off
*  Target level: 75.0 dB
* Note: ; 
* Measurement: Tea 2 R
* Smoothing: 1/48 octave
* Frequency Step: 1/24 octave
* Start Frequency: 20.600 Hz
*
* Freq(Hz)	SPL(dB)	Phase(degrees)
20.600000	99.449715	-123.7857
21.200001	99.537834	-125.6294
21.799999	99.606064	-127.3950
22.400000	99.658470	-129.1137
23.000000	99.697319	-130.7590
23.600000	99.727585	-132.3506
24.299999	99.753761	-134.1360
25.000000	99.760216	-135.8400
25.799999	99.764969	-137.7581
26.500000	99.768982	-139.3538
27.200001	99.754562	-140.9196
28.000000	99.738235	-142.6468
29.000000	99.723106	-144.6631
30.000000	99.695076	-146.6181
30.700001	99.674316	-147.9116
31.500000	99.647453	-149.3208
32.500000	99.609856	-151.0660
33.500000	99.574219	-152.7288
34.500000	99.532249	-154.3163
35.500000	99.493889	-155.8234
36.500000	99.452675	-157.2816
37.500000	99.404984	-158.6489
38.700001	99.346603	-160.2510
40.000000	99.289375	-161.9297
41.200001	99.226715	-163.3388
42.500000	99.155396	-164.8715
43.700001	99.095512	-166.1924
45.000000	99.023529	-167.5364
46.200001	98.958977	-168.7830
47.500000	98.884750	-170.0130
48.700001	98.819344	-171.1123
50.000000	98.749313	-172.2456
51.500000	98.660324	-173.4998
53.000000	98.574547	-174.6721
54.500000	98.486603	-175.8286
56.000000	98.402733	-176.8841
58.000000	98.287727	-178.2646
60.000000	98.166473	-179.5336
61.500000	98.085999	179.5826
63.000000	98.005745	178.7300
65.000000	97.889824	177.6531
67.000000	97.772316	176.6608
69.000000	97.657822	175.6819
71.000000	97.543304	174.8040
73.000000	97.429375	173.9593
75.000000	97.316521	173.1751
77.500000	97.174553	172.2614
80.000000	97.034927	171.4246
82.500000	96.893860	170.6490
85.000000	96.758232	169.9361
87.500000	96.622849	169.2559
90.000000	96.498100	168.4777
92.500000	96.359177	168.1080
95.000000	96.232155	167.6098
97.500000	96.105560	167.1400
100.000000	95.985573	166.7280
103.000000	95.840965	166.2517
106.000000	95.704857	165.8578
109.000000	95.571388	165.5179
112.000000	95.439598	165.1997
115.000000	95.313515	164.9241
118.000000	95.152489	164.5907
122.000000	95.032761	164.4255
125.000000	94.916840	164.2786
128.000000	94.804192	164.1621
132.000000	94.657425	164.0593
136.000000	94.515900	163.9822
140.000000	94.379486	163.9610
145.000000	94.209549	164.0007
150.000000	94.053970	164.0791
155.000000	93.903168	164.2148
160.000000	93.758560	164.4027
165.000000	93.621933	164.6250
170.000000	93.490211	164.8780
175.000000	93.365135	165.1662
180.000000	93.245735	165.4849
185.000000	93.132233	165.8262
190.000000	93.025696	166.1882
195.000000	92.923172	166.5743
200.000000	92.825394	166.9771
206.000000	92.717453	167.4796
212.000000	92.615852	167.9953
218.000000	92.520393	168.5306
224.000000	92.432671	169.0657
230.000000	92.351082	169.6096
236.000000	92.276299	170.1627
243.000000	92.193985	170.8112
250.000000	92.119995	171.4630
258.000000	92.044647	172.2061
265.000000	91.984779	172.8590
272.000000	91.931221	173.4972
280.000000	91.876328	174.2140
290.000000	91.817390	175.1016
300.000000	91.768578	175.9618
307.000000	91.736275	176.5538
315.000000	91.706100	177.2166
325.000000	91.673798	178.0182
335.000000	91.647728	178.7989
345.000000	91.626228	179.5425
355.000000	91.609131	-179.7320
365.000000	91.597542	-179.0220
375.000000	91.587730	-178.3490
387.000000	91.579536	-177.5658
400.000000	91.574219	-176.7604
412.000000	91.571831	-176.0452
425.000000	91.571533	-175.3015
437.000000	91.572067	-174.6382
450.000000	91.573410	-173.9459
462.000000	91.575554	-173.3296
475.000000	91.577316	-172.6783
487.000000	91.578529	-172.0941
500.000000	91.579636	-171.4728
515.000000	91.579720	-170.7665
530.000000	91.577522	-170.0701
545.000000	91.573471	-169.3686
560.000000	91.568329	-168.6599
580.000000	91.559288	-167.6776
600.000000	91.553856	-166.6440
615.000000	91.554390	-165.8328
630.000000	91.561073	-165.0089
650.000000	91.579414	-163.9055
670.000000	91.606308	-162.8201
690.000000	91.638962	-161.7605
710.000000	91.675110	-160.7185
730.000000	91.713989	-159.6833
750.000000	91.757011	-158.6373
775.000000	91.817162	-157.3176
800.000000	91.887085	-155.9748
825.000000	91.969742	-154.6203
850.000000	92.066719	-153.2664
875.000000	92.180008	-151.9261
900.000000	92.309464	-150.6157
925.000000	92.455818	-149.3577
950.000000	92.618683	-148.1731
975.000000	92.796204	-147.0822
1000.000000	92.985992	-146.0997
1030.000000	93.226547	-145.0865
1060.000000	93.474174	-144.2672
1090.000000	93.723572	-143.6378
1120.000000	93.969200	-143.1904
1150.000000	94.206451	-142.9037
1180.000000	94.432053	-142.7523
1220.000000	94.711411	-142.7170
1250.000000	94.905006	-142.7791
1280.000000	95.084290	-142.8925
1320.000000	95.304398	-143.0975
1360.000000	95.505989	-143.3394
1400.000000	95.692131	-143.6033
1450.000000	95.908913	-143.9527
1500.000000	96.111946	-144.3247
1550.000000	96.303871	-144.7339
1600.000000	96.486374	-145.1872
1650.000000	96.656898	-145.7004
1700.000000	96.815079	-146.2769
1750.000000	96.958862	-146.9107
1800.000000	97.086441	-147.5967
1850.000000	97.195259	-148.3200
1900.000000	97.284485	-149.0551
1950.000000	97.353386	-149.7789
2000.000000	97.402542	-150.4646
2060.000000	97.438454	-151.1961
2120.000000	97.455315	-151.7934
2180.000000	97.461220	-152.2298
2240.000000	97.465973	-152.4998
2300.000000	97.478928	-152.6231
2360.000000	97.507339	-152.6433
2430.000000	97.567032	-152.6089
2500.000000	97.654907	-152.6095
2580.000000	97.782814	-152.7622
2650.000000	97.906334	-153.0931
2720.000000	98.026505	-153.6215
2800.000000	98.146225	-154.4207
2900.000000	98.256348	-155.5894
3000.000000	98.323944	-156.7852
3070.000000	98.353638	-157.5779
3150.000000	98.378815	-158.4350
3250.000000	98.405891	-159.4733
3350.000000	98.427719	-160.5400
3450.000000	98.434799	-161.6784
3550.000000	98.412697	-162.8315
3650.000000	98.358963	-163.8201
3750.000000	98.308685	-164.4461
3870.000000	98.346596	-164.8875
4000.000000	98.567131	-166.0728
4120.000000	98.817505	-168.9662
4250.000000	98.874115	-174.1699
4370.000000	98.549965	-179.6468
4500.000000	97.839058	175.4617
4620.000000	97.015053	172.4198
4750.000000	96.014877	170.5405
4870.000000	95.008270	170.3351
5000.000000	93.907768	172.1884
5150.000000	92.807259	177.1513
5300.000000	92.134140	-175.4341
5450.000000	92.133186	-167.3953
5600.000000	92.804169	-162.1807
5800.000000	93.741241	-163.8688
6000.000000	93.515526	-169.4559
6150.000000	92.850319	-171.0071
6300.000000	92.184769	-170.0386
6500.000000	91.549988	-166.5623
6700.000000	91.242523	-162.2173
6900.000000	91.227112	-158.0915
7100.000000	91.446159	-154.8582
7300.000000	91.809898	-153.1088
7500.000000	92.253975	-153.1377
7750.000000	92.585899	-156.7276
8000.000000	92.308838	-161.1469
8250.000000	91.593765	-163.8522
8500.000000	90.697029	-163.8609
8750.000000	89.885864	-161.1786
9000.000000	89.277809	-157.1484
9250.000000	88.879669	-151.2291
9500.000000	89.109596	-143.7746
9750.000000	90.133102	-139.3738
10000.000000	91.265350	-140.4765
10300.000000	92.225449	-145.6792
10600.000000	92.942207	-151.8567
10900.000000	93.783195	-159.4386
11200.000000	94.676605	-170.9141
11500.000000	95.128845	173.6411
11800.000000	95.023605	157.3849
12200.000000	94.439514	135.5038
12500.000000	93.596252	117.4270
12800.000000	91.998238	98.8530
13200.000000	88.679283	79.7372
13600.000000	84.989731	69.9478
14000.000000	81.704926	66.1468
14500.000000	78.467720	64.4708
15000.000000	76.238968	60.6456
15500.000000	74.988602	49.6752
16000.000000	74.486313	26.9646
16500.000000	74.231476	-4.9624
17000.000000	74.825081	-39.0507
17500.000000	76.257401	-79.0087
18000.000000	77.321930	-126.8872
18500.000000	77.490112	178.5153
19000.000000	76.929817	114.0836
19500.000000	75.115967	29.7254
