* Measurement data measured by REW V5.20 Beta 26
* Source: Microphone (2- USB Sound Device        ), MICROPHONE (Master Volume), L, volume: 0.250
* Format: 1M Log Swept Sine, 1 sweep at 0.0 dBFS With no timing reference
* Dated: Dec 31, 2019 8:37:40 PM
* REW Settings:
*  C-weighting compensation: Off
*  Target level: 75.0 dB
* Note: ; 
* Measurement: qdc Uranus - L
* Smoothing: 1/48 octave
* Frequency Step: 1/24 octave
* Start Frequency: 20.600 Hz
*
* Freq(Hz)	SPL(dB)	Phase(degrees)
20.600000	84.135803	-132.0497
21.200001	84.161827	-132.2228
21.799999	84.182190	-132.2173
22.400000	84.211517	-132.2640
23.000000	84.245956	-132.4371
23.600000	84.287331	-132.7449
24.299999	84.334991	-133.3030
25.000000	84.356979	-133.9342
25.799999	84.356857	-134.3516
26.500000	84.382095	-134.3433
27.200001	84.458099	-134.2702
28.000000	84.553970	-134.5057
29.000000	84.578178	-134.7539
30.000000	84.639702	-134.4506
30.700001	84.718353	-134.7194
31.500000	84.718277	-135.3212
32.500000	84.668610	-135.4662
33.500000	84.663429	-135.4082
34.500000	84.699432	-135.0389
35.500000	84.816841	-135.0583
36.500000	84.830795	-135.3079
37.500000	84.846809	-134.9170
38.700001	84.890892	-134.7871
40.000000	84.885048	-134.4967
41.200001	84.894638	-134.3233
42.500000	84.913475	-134.1091
43.700001	84.960625	-134.0410
45.000000	84.994446	-134.0718
46.200001	85.009369	-133.8055
47.500000	85.051682	-133.4748
48.700001	85.068359	-133.1670
50.000000	85.086868	-132.8460
51.500000	85.090637	-132.4272
53.000000	85.118202	-132.0468
54.500000	85.140549	-131.7142
56.000000	85.138245	-131.2744
58.000000	85.189362	-130.5197
60.000000	85.202545	-130.0892
61.500000	85.214348	-129.6983
63.000000	85.198219	-129.3272
65.000000	85.288193	-128.5604
67.000000	85.295113	-127.9309
69.000000	85.350296	-127.1087
71.000000	85.414139	-126.5234
73.000000	85.465225	-126.0106
75.000000	85.484673	-125.4964
77.500000	85.519638	-124.8277
80.000000	85.578209	-123.9923
82.500000	85.609123	-123.1912
85.000000	85.650040	-122.6482
87.500000	85.696159	-122.0389
90.000000	85.746216	-121.4539
92.500000	85.783684	-120.5845
95.000000	85.814865	-119.9442
97.500000	85.861549	-119.1987
100.000000	85.892754	-118.6224
103.000000	85.918541	-117.9013
106.000000	85.998802	-117.3906
109.000000	85.974236	-116.3697
112.000000	86.054665	-115.1706
115.000000	86.099121	-114.5997
118.000000	86.093437	-114.1918
122.000000	86.152306	-113.2535
125.000000	86.180077	-112.5182
128.000000	86.194962	-111.7589
132.000000	86.227676	-110.8279
136.000000	86.254730	-109.8417
140.000000	86.273376	-109.0161
145.000000	86.310020	-107.8466
150.000000	86.349602	-106.6821
155.000000	86.352928	-105.5618
160.000000	86.381889	-104.4899
165.000000	86.407837	-103.3695
170.000000	86.421577	-102.2777
175.000000	86.428680	-101.3054
180.000000	86.449020	-100.3084
185.000000	86.458275	-99.2838
190.000000	86.459290	-98.3787
195.000000	86.438797	-97.3034
200.000000	86.429680	-96.3989
206.000000	86.406006	-95.0633
212.000000	86.343178	-93.7494
218.000000	86.299225	-92.2362
224.000000	86.315430	-90.4178
230.000000	86.408974	-88.9924
236.000000	86.442123	-88.0890
243.000000	86.421265	-87.0902
250.000000	86.389618	-85.8332
258.000000	86.347832	-84.5141
265.000000	86.287857	-83.2163
272.000000	86.234146	-81.9996
280.000000	86.161659	-80.4391
290.000000	86.057426	-78.5261
300.000000	85.961319	-76.5047
307.000000	85.874008	-75.1927
315.000000	85.779831	-73.5082
325.000000	85.664001	-71.4251
335.000000	85.528091	-69.3274
345.000000	85.386253	-67.0792
355.000000	85.230896	-64.8336
365.000000	85.080803	-62.5089
375.000000	84.933167	-60.1547
387.000000	84.745628	-57.2289
400.000000	84.549232	-53.9043
412.000000	84.343529	-50.7340
425.000000	84.117233	-47.0443
437.000000	83.958786	-43.3415
450.000000	83.830597	-39.2894
462.000000	83.759735	-35.9839
475.000000	83.639671	-32.6142
487.000000	83.529617	-29.4860
500.000000	83.371445	-26.0584
515.000000	83.152641	-21.9733
530.000000	82.939232	-17.6725
545.000000	82.758820	-13.2336
560.000000	82.559448	-8.8650
580.000000	82.308723	-2.8277
600.000000	82.066101	3.5038
615.000000	81.893509	8.1080
630.000000	81.738930	12.8667
650.000000	81.540405	19.2060
670.000000	81.342041	25.7486
690.000000	81.138954	32.2865
710.000000	80.939804	39.1764
730.000000	80.789124	46.0053
750.000000	80.600655	52.9014
775.000000	80.468300	61.7312
800.000000	80.350494	70.8253
825.000000	80.248528	80.1135
850.000000	80.256157	89.3690
875.000000	80.312607	98.6707
900.000000	80.487045	107.5640
925.000000	80.653755	116.0922
950.000000	80.855408	124.4783
975.000000	81.049812	132.1201
1000.000000	81.170372	139.9288
1030.000000	81.488251	149.1358
1060.000000	81.771194	158.0265
1090.000000	82.053146	166.7785
1120.000000	82.371552	175.2782
1150.000000	82.718330	-176.6524
1180.000000	83.024818	-168.9345
1220.000000	83.460670	-159.1183
1250.000000	83.760277	-152.0557
1280.000000	84.040894	-145.2544
1320.000000	84.378159	-136.4247
1360.000000	84.670914	-127.9585
1400.000000	84.924698	-119.4968
1450.000000	85.216858	-109.1427
1500.000000	85.472878	-98.8181
1550.000000	85.726364	-88.7175
1600.000000	85.973694	-78.5148
1650.000000	86.231834	-68.6411
1700.000000	86.487335	-58.9005
1750.000000	86.737663	-49.2784
1800.000000	87.022682	-39.8610
1850.000000	87.313232	-30.7607
1900.000000	87.614319	-21.9396
1950.000000	87.915489	-13.4686
2000.000000	88.231277	-5.5233
2060.000000	88.592865	3.9401
2120.000000	88.951668	12.6115
2180.000000	89.286377	20.7219
2240.000000	89.590080	28.3136
2300.000000	89.819710	35.2688
2360.000000	89.985390	41.7324
2430.000000	90.086327	48.9814
2500.000000	90.049789	55.8685
2580.000000	89.873772	63.7056
2650.000000	89.609177	70.6531
2720.000000	89.262070	77.8574
2800.000000	88.798103	86.5547
2900.000000	88.172028	98.1369
3000.000000	87.549080	110.1785
3070.000000	87.146439	119.1132
3150.000000	86.721725	129.3120
3250.000000	86.200737	142.2964
3350.000000	85.753014	155.4148
3450.000000	85.354317	168.4719
3550.000000	85.036346	-178.4233
3650.000000	84.791031	-165.4582
3750.000000	84.600441	-152.7746
3870.000000	84.468193	-138.1382
4000.000000	84.387421	-122.9688
4120.000000	84.253471	-109.4282
4250.000000	84.157791	-94.6422
4370.000000	84.152534	-80.4462
4500.000000	84.436516	-65.6944
4620.000000	84.821808	-53.0032
4750.000000	85.375290	-40.4584
4870.000000	85.982285	-30.0875
5000.000000	86.717293	-20.3528
5150.000000	87.630928	-11.0858
5300.000000	88.521049	-4.3711
5450.000000	89.269691	-0.1847
5600.000000	89.741173	1.9042
5800.000000	89.844551	3.1540
6000.000000	89.348938	4.8586
6150.000000	88.722221	8.5645
6300.000000	88.361382	13.6212
6500.000000	88.027611	19.7693
6700.000000	87.871468	25.9078
6900.000000	88.043884	31.5414
7100.000000	88.623314	34.9344
7300.000000	89.496063	34.0634
7500.000000	90.309753	26.3366
7750.000000	89.819901	8.3253
8000.000000	87.524643	-5.9776
8250.000000	84.588112	-10.7589
8500.000000	82.094734	-9.8178
8750.000000	80.167664	-7.2222
9000.000000	78.673836	-4.2498
9250.000000	77.452103	-2.7514
9500.000000	75.716667	-1.2563
9750.000000	74.558754	14.1643
10000.000000	76.637840	21.4583
10300.000000	79.003914	11.8092
10600.000000	80.685173	-12.9079
10900.000000	79.506462	-46.2465
11200.000000	76.171005	-67.1920
11500.000000	72.937225	-76.3130
11800.000000	70.592903	-79.2408
12200.000000	68.892769	-80.8709
12500.000000	68.728867	-82.4921
12800.000000	69.464027	-88.1326
13200.000000	71.208870	-103.8328
13600.000000	73.072998	-130.1647
14000.000000	74.819481	-164.0696
14500.000000	76.975426	142.6259
15000.000000	77.358971	71.5687
15500.000000	74.957985	6.9440
16000.000000	74.059204	-53.4228
16500.000000	72.653290	-144.4380
17000.000000	64.229584	136.2618
17500.000000	56.314884	-22.5765
18000.000000	56.190292	129.9160
18500.000000	53.969296	28.5488
19000.000000	49.714195	96.8984
19500.000000	49.712822	7.1680
