* Measurement data measured by REW V5.20
* Source: Headset (USB-C to 3.5mm Headphone Jack Adapter), MICROPHONE (Master Volume), R, volume: 0.630
* Format: 512k Log Swept Sine, 1 sweep at 0.0 dBFS with no timing reference
* Dated: Jul 10, 2022 3:25:28 PM
* REW Settings:
*  C-weighting compensation: Off
*  Target level: 75.0 dB
* Note: ; 
* Measurement: Vulkan L
* Smoothing: 1/48 octave
* Frequency Step: 1/24 octave
* Start Frequency: 20.600 Hz
*
* Freq(Hz)	SPL(dB)	Phase(degrees)
20.600000	99.773895	-177.9652
21.200001	99.703865	-178.9539
21.799999	99.623276	-179.9507
22.400000	99.531067	179.0919
23.000000	99.424385	178.2723
23.600000	99.313431	177.5058
24.299999	99.189880	176.5320
25.000000	99.071037	175.5378
25.799999	98.929611	174.5248
26.500000	98.801682	173.6388
27.200001	98.682526	172.8315
28.000000	98.538887	172.0544
29.000000	98.381165	170.9858
30.000000	98.218079	170.1365
30.700001	98.087616	169.4297
31.500000	97.952362	168.6335
32.500000	97.802727	167.8201
33.500000	97.658043	167.0375
34.500000	97.509743	166.2627
35.500000	97.358574	165.5529
36.500000	97.231628	164.8130
37.500000	97.090759	164.2272
38.700001	96.943214	163.6759
40.000000	96.740944	162.7131
41.200001	96.637192	162.1004
42.500000	96.389221	160.5580
43.700001	96.285889	160.4212
45.000000	96.157379	160.2946
46.200001	96.019897	159.7010
47.500000	95.893318	159.2090
48.700001	95.749733	158.6711
50.000000	95.615669	158.3285
51.500000	95.464653	157.7995
53.000000	95.299492	157.2811
54.500000	95.147903	156.8976
56.000000	95.027512	156.4631
58.000000	94.825974	156.0548
60.000000	94.613472	155.7701
61.500000	94.516296	155.3652
63.000000	94.389992	155.1266
65.000000	94.228180	154.8491
67.000000	94.067146	154.5471
69.000000	93.917191	154.2689
71.000000	93.757385	154.1115
73.000000	93.605934	153.9452
75.000000	93.461334	153.7734
77.500000	93.293053	153.6216
80.000000	93.133469	153.4919
82.500000	92.957001	153.4370
85.000000	92.803909	153.3893
87.500000	92.643143	153.4001
90.000000	92.572281	153.2406
92.500000	92.366936	153.4142
95.000000	92.222443	153.5265
97.500000	91.985779	153.2701
100.000000	91.959953	153.5840
103.000000	91.834740	153.7676
106.000000	91.704498	153.8526
109.000000	91.579048	154.0149
112.000000	91.467163	154.1331
115.000000	91.341614	154.3830
118.000000	91.224907	154.7056
122.000000	91.073563	154.8395
125.000000	90.967216	155.2468
128.000000	90.873802	155.3290
132.000000	90.751541	155.6691
136.000000	90.636581	155.9866
140.000000	90.520645	156.3014
145.000000	90.393593	156.7482
150.000000	90.268463	157.1694
155.000000	90.145966	157.6105
160.000000	90.036774	158.0488
165.000000	89.928032	158.5236
170.000000	89.814835	158.9410
175.000000	89.732162	159.3950
180.000000	89.636482	159.8038
185.000000	89.556900	160.2576
190.000000	89.476974	160.7019
195.000000	89.398926	161.1358
200.000000	89.320587	161.5968
206.000000	89.236000	162.0945
212.000000	89.160950	162.5889
218.000000	89.073242	163.1259
224.000000	89.008957	163.5933
230.000000	88.944664	164.0914
236.000000	88.876694	164.5671
243.000000	88.803909	165.1353
250.000000	88.732742	165.6746
258.000000	88.661270	166.2793
265.000000	88.599861	166.8273
272.000000	88.543564	167.3719
280.000000	88.481766	167.9439
290.000000	88.407478	168.6749
300.000000	88.340340	169.4135
307.000000	88.290848	169.8336
315.000000	88.237785	170.3913
325.000000	88.176529	171.0506
335.000000	88.114380	171.7500
345.000000	88.055344	172.4037
355.000000	88.001030	173.0831
365.000000	87.950279	173.7393
375.000000	87.902557	174.4316
387.000000	87.845139	175.2510
400.000000	87.795265	176.2066
412.000000	87.765831	177.0935
425.000000	87.753967	177.9729
437.000000	87.750900	178.6107
450.000000	87.731262	179.1914
462.000000	87.696510	179.6982
475.000000	87.650444	-179.6805
487.000000	87.608803	-179.0569
500.000000	87.564178	-178.3484
515.000000	87.518341	-177.4922
530.000000	87.477356	-176.6351
545.000000	87.439171	-175.7393
560.000000	87.406799	-174.8506
580.000000	87.368965	-173.6552
600.000000	87.337326	-172.4633
615.000000	87.317871	-171.5399
630.000000	87.304962	-170.6192
650.000000	87.292336	-169.3662
670.000000	87.289597	-168.1271
690.000000	87.292969	-166.8683
710.000000	87.305237	-165.6123
730.000000	87.327675	-164.3640
750.000000	87.358124	-163.1090
775.000000	87.409981	-161.5598
800.000000	87.475784	-160.0260
825.000000	87.556480	-158.5413
850.000000	87.653450	-157.0936
875.000000	87.762558	-155.6906
900.000000	87.887665	-154.3676
925.000000	88.026329	-153.1201
950.000000	88.177483	-151.9530
975.000000	88.338158	-150.9059
1000.000000	88.507118	-149.9606
1030.000000	88.718216	-148.9981
1060.000000	88.931496	-148.2188
1090.000000	89.143288	-147.6226
1120.000000	89.347275	-147.1959
1150.000000	89.540466	-146.9217
1180.000000	89.719666	-146.7791
1220.000000	89.934021	-146.7316
1250.000000	90.073578	-146.7832
1280.000000	90.197449	-146.8717
1320.000000	90.336349	-147.0311
1360.000000	90.451653	-147.2060
1400.000000	90.544868	-147.3525
1450.000000	90.635071	-147.4896
1500.000000	90.701393	-147.5606
1550.000000	90.749466	-147.5364
1600.000000	90.782501	-147.4122
1650.000000	90.803452	-147.1824
1700.000000	90.816849	-146.8356
1750.000000	90.823715	-146.3491
1800.000000	90.835686	-145.6804
1850.000000	90.881546	-144.9017
1900.000000	90.930214	-144.3392
1950.000000	90.949554	-143.6104
2000.000000	90.984970	-142.6769
2060.000000	91.053009	-141.4257
2120.000000	91.155121	-140.0920
2180.000000	91.292397	-138.7271
2240.000000	91.467209	-137.3738
2300.000000	91.681854	-136.0938
2360.000000	91.934174	-134.9320
2430.000000	92.275803	-133.8109
2500.000000	92.662178	-133.0270
2580.000000	93.146736	-132.6691
2650.000000	93.593987	-132.9151
2720.000000	94.042938	-133.7603
2800.000000	94.527100	-135.5075
2900.000000	95.029892	-138.8149
3000.000000	95.343231	-143.0740
3070.000000	95.421158	-146.3110
3150.000000	95.363525	-149.9084
3250.000000	95.114044	-153.7662
3350.000000	94.748276	-156.6585
3450.000000	94.328316	-158.6769
3550.000000	93.880409	-159.8967
3650.000000	93.436005	-160.3510
3750.000000	93.020042	-160.1613
3870.000000	92.580574	-159.2851
4000.000000	92.190269	-157.7782
4120.000000	91.911072	-156.0572
4250.000000	91.693871	-154.0099
4370.000000	91.567619	-152.0736
4500.000000	91.506989	-150.0481
4620.000000	91.508148	-148.3525
4750.000000	91.558372	-146.7607
4870.000000	91.640678	-145.5741
5000.000000	91.749825	-144.6415
5150.000000	91.877075	-144.0208
5300.000000	91.974770	-143.7848
5450.000000	92.023026	-143.7296
5600.000000	92.020256	-143.5771
5800.000000	91.986336	-142.7576
6000.000000	92.039383	-140.9596
6150.000000	92.236328	-139.1558
6300.000000	92.636391	-137.4704
6500.000000	93.512787	-136.7948
6700.000000	94.582489	-139.8335
6900.000000	95.363541	-146.8747
7100.000000	95.619911	-155.2800
7300.000000	95.505333	-162.7367
7500.000000	95.358696	-169.4438
7750.000000	95.162506	-179.2272
8000.000000	94.476578	168.5485
8250.000000	92.944206	157.4000
8500.000000	90.894646	151.0009
8750.000000	88.851532	149.5146
9000.000000	87.091629	151.4117
9250.000000	85.702988	155.2949
9500.000000	84.704178	160.1451
9750.000000	84.093758	165.2298
10000.000000	83.885788	169.8848
10300.000000	84.198563	173.6962
10600.000000	85.116241	173.2169
10900.000000	86.291115	165.2728
11200.000000	86.988029	146.7587
11500.000000	85.401321	122.2178
11800.000000	81.800179	108.7327
12200.000000	76.639687	114.0574
12500.000000	74.742996	136.4474
12800.000000	76.943886	155.4857
13200.000000	81.422279	149.8273
13600.000000	83.553329	122.0887
14000.000000	83.323898	95.7621
14500.000000	82.764565	67.2663
15000.000000	81.370018	32.7189
15500.000000	78.374832	-0.3948
16000.000000	74.830780	-28.2056
16500.000000	71.589806	-52.5679
17000.000000	69.419083	-76.5486
17500.000000	68.783249	-105.4210
18000.000000	69.792557	-140.3834
18500.000000	72.685547	171.3293
19000.000000	76.462990	97.8176
19500.000000	78.009087	-11.9457
