* Measurement data measured by REW V5.20
* Source: Headset (USB-C to 3.5mm Headphone Jack Adapter), MICROPHONE (Master Volume), R, volume: 0.250
* Format: 512k Log Swept Sine, 1 sweep at 0.0 dBFS with no timing reference
* Dated: Jul 25, 2022 12:55:28 PM
* REW Settings:
*  C-weighting compensation: Off
*  Target level: 75.0 dB
* Note: ; 
* Measurement: x Crinacle Zero R
* Smoothing: 1/48 octave
* Frequency Step: 1/24 octave
* Start Frequency: 20.600 Hz
*
* Freq(Hz)	SPL(dB)	Phase(degrees)
20.600000	81.749191	-98.4654
21.200001	81.931030	-100.2838
21.799999	82.066055	-102.3298
22.400000	82.244804	-104.4436
23.000000	82.393005	-106.0412
23.600000	82.474106	-107.6779
24.299999	82.622253	-109.9417
25.000000	82.786636	-112.0309
25.799999	82.828934	-114.3157
26.500000	82.856911	-116.6039
27.200001	83.007332	-118.5872
28.000000	83.120834	-120.3531
29.000000	83.197189	-122.9951
30.000000	83.277817	-125.2440
30.700001	83.335007	-126.9399
31.500000	83.397408	-128.6337
32.500000	83.452934	-130.9470
33.500000	83.484909	-133.0235
34.500000	83.530006	-135.2197
35.500000	83.581490	-137.2438
36.500000	83.614594	-139.2219
37.500000	83.651772	-140.8348
38.700001	83.666283	-143.0379
40.000000	83.698868	-145.6124
41.200001	83.676193	-147.5777
42.500000	83.690735	-149.5134
43.700001	83.608223	-151.5428
45.000000	83.700256	-153.4146
46.200001	83.641907	-154.9220
47.500000	83.640579	-157.0886
48.700001	83.607529	-158.3055
50.000000	83.610573	-160.4654
51.500000	83.528503	-162.0564
53.000000	83.528496	-164.6567
54.500000	83.436996	-165.8727
56.000000	83.412170	-167.9595
58.000000	83.356949	-169.9176
60.000000	83.276840	-172.5641
61.500000	83.138878	-173.7143
63.000000	83.084282	-175.7185
65.000000	82.995438	-176.7889
67.000000	82.878395	-178.8146
69.000000	82.752739	179.5130
71.000000	82.665352	177.8373
73.000000	82.580887	176.1343
75.000000	82.431595	174.6685
77.500000	82.211189	172.7553
80.000000	82.119141	171.0630
82.500000	81.894302	169.3602
85.000000	81.716187	167.8858
87.500000	81.512161	166.3146
90.000000	81.310860	165.6989
92.500000	81.126045	163.7429
95.000000	80.927505	162.7528
97.500000	80.704941	161.5670
100.000000	80.522141	160.3770
103.000000	80.225090	159.1556
106.000000	79.999458	158.1675
109.000000	79.728798	157.2061
112.000000	79.477188	156.4240
115.000000	79.216545	155.8512
118.000000	78.957512	155.2463
122.000000	78.568817	154.7535
125.000000	78.312012	154.7122
128.000000	78.030914	154.6677
132.000000	77.676559	154.3821
136.000000	77.335266	154.3937
140.000000	76.967712	154.8550
145.000000	76.622307	155.6417
150.000000	76.226570	156.7075
155.000000	75.869659	157.9032
160.000000	75.511589	159.5250
165.000000	75.278992	161.2213
170.000000	75.066254	162.7852
175.000000	74.917389	164.8857
180.000000	74.776260	166.6594
185.000000	74.670944	168.6209
190.000000	74.606613	170.3015
195.000000	74.593658	171.9154
200.000000	74.594231	173.3718
206.000000	74.619904	175.1364
212.000000	74.656464	176.7053
218.000000	74.712204	178.0100
224.000000	74.782135	179.0518
230.000000	74.857018	-179.9891
236.000000	74.924454	-179.2130
243.000000	75.003181	-178.3396
250.000000	75.078827	-177.7421
258.000000	75.145630	-177.0677
265.000000	75.207253	-176.6536
272.000000	75.256058	-176.2081
280.000000	75.297714	-175.8364
290.000000	75.338188	-175.3869
300.000000	75.356720	-175.0585
307.000000	75.381447	-174.7513
315.000000	75.391846	-174.3978
325.000000	75.395409	-174.0447
335.000000	75.389725	-173.7338
345.000000	75.380203	-173.2946
355.000000	75.364304	-172.9403
365.000000	75.344513	-172.5258
375.000000	75.319801	-172.1185
387.000000	75.290428	-171.5556
400.000000	75.258240	-170.9395
412.000000	75.224670	-170.2982
425.000000	75.185577	-169.6089
437.000000	75.146873	-168.9455
450.000000	75.111961	-168.1643
462.000000	75.083809	-167.4271
475.000000	75.052361	-166.5671
487.000000	75.025314	-165.8041
500.000000	75.002769	-164.9132
515.000000	74.980347	-163.8422
530.000000	74.960823	-162.7401
545.000000	74.953232	-161.6356
560.000000	74.951385	-160.4872
580.000000	74.967262	-158.9167
600.000000	75.002792	-157.3261
615.000000	75.041168	-156.1789
630.000000	75.087326	-155.0179
650.000000	75.170197	-153.5765
670.000000	75.263847	-152.1833
690.000000	75.368935	-150.9323
710.000000	75.480316	-149.8197
730.000000	75.583282	-148.7547
750.000000	75.681824	-147.8139
775.000000	75.792236	-146.6983
800.000000	75.892380	-145.5450
825.000000	75.987328	-144.3737
850.000000	76.084587	-143.1599
875.000000	76.180710	-141.9037
900.000000	76.293999	-140.5903
925.000000	76.420570	-139.2869
950.000000	76.562546	-138.0037
975.000000	76.715332	-136.7702
1000.000000	76.887146	-135.6222
1030.000000	77.100899	-134.3834
1060.000000	77.325768	-133.2694
1090.000000	77.552780	-132.3316
1120.000000	77.776833	-131.5295
1150.000000	77.994202	-130.8778
1180.000000	78.198257	-130.3091
1220.000000	78.454872	-129.6907
1250.000000	78.632889	-129.2691
1280.000000	78.800362	-128.8699
1320.000000	79.009064	-128.3532
1360.000000	79.208199	-127.8503
1400.000000	79.396751	-127.3177
1450.000000	79.627487	-126.6298
1500.000000	79.853981	-125.9144
1550.000000	80.083115	-125.1855
1600.000000	80.318481	-124.4613
1650.000000	80.559097	-123.7506
1700.000000	80.805153	-123.0564
1750.000000	81.062881	-122.4167
1800.000000	81.329056	-121.8218
1850.000000	81.604866	-121.3241
1900.000000	81.890259	-120.9088
1950.000000	82.180527	-120.6027
2000.000000	82.476585	-120.4191
2060.000000	82.838089	-120.3656
2120.000000	83.200958	-120.5092
2180.000000	83.563446	-120.8676
2240.000000	83.919106	-121.4534
2300.000000	84.261993	-122.2574
2360.000000	84.588814	-123.2885
2430.000000	84.941757	-124.7362
2500.000000	85.256851	-126.4343
2580.000000	85.562386	-128.6084
2650.000000	85.777710	-130.6483
2720.000000	85.942108	-132.7529
2800.000000	86.071060	-135.1433
2900.000000	86.148994	-138.0131
3000.000000	86.150871	-140.6149
3070.000000	86.117981	-142.2445
3150.000000	86.056625	-143.8777
3250.000000	85.957489	-145.6030
3350.000000	85.847572	-147.0225
3450.000000	85.736694	-148.1667
3550.000000	85.629936	-149.1053
3650.000000	85.531944	-149.8709
3750.000000	85.445770	-150.4988
3870.000000	85.358955	-151.1393
4000.000000	85.288345	-151.7496
4120.000000	85.241272	-152.2993
4250.000000	85.210060	-152.9423
4370.000000	85.192856	-153.6361
4500.000000	85.180244	-154.5363
4620.000000	85.165604	-155.5496
4750.000000	85.133560	-156.8418
4870.000000	85.078728	-158.2142
5000.000000	84.979042	-159.8474
5150.000000	84.799210	-161.8234
5300.000000	84.545731	-163.7330
5450.000000	84.220207	-165.4231
5600.000000	83.838745	-166.7527
5800.000000	83.279434	-167.8062
6000.000000	82.710999	-168.0086
6150.000000	82.311325	-167.6537
6300.000000	81.951828	-166.9515
6500.000000	81.558861	-165.6322
6700.000000	81.289497	-164.1380
6900.000000	81.147408	-162.7302
7100.000000	81.152504	-161.6264
7300.000000	81.320312	-161.3945
7500.000000	81.594864	-162.5082
7750.000000	82.004128	-166.3813
8000.000000	82.270096	-173.5694
8250.000000	82.090012	176.5739
8500.000000	81.293655	166.2550
8750.000000	79.997246	157.8599
9000.000000	78.488564	152.2648
9250.000000	76.971352	148.9918
9500.000000	75.491196	147.5865
9750.000000	74.095222	148.1846
10000.000000	72.920052	150.7256
10300.000000	71.934784	155.0834
10600.000000	71.375458	159.5342
10900.000000	71.157448	163.1570
11200.000000	71.168289	165.4948
11500.000000	71.226044	166.1392
11800.000000	71.117523	166.6926
12200.000000	71.381668	170.4176
12500.000000	72.371780	171.4937
12800.000000	73.814575	167.6642
13200.000000	75.744858	150.5936
13600.000000	75.777870	121.2164
14000.000000	73.582359	96.1082
14500.000000	70.384773	74.3723
15000.000000	67.555206	55.4364
15500.000000	65.453682	34.8507
16000.000000	64.326050	9.2051
16500.000000	64.242271	-23.0951
17000.000000	64.946579	-62.1327
17500.000000	65.801147	-108.0784
18000.000000	66.077995	-159.8340
18500.000000	65.572792	144.1019
19000.000000	64.382133	82.0244
19500.000000	62.181881	9.4589
