* Measurement data measured by REW V5.19
* Source: Microphone (2- USB Sound Device        ), no input selected, R, volume: no control
* Format: 1M Log Swept Sine, 1 sweep at -20.0 dBFS  With no timing reference
* Dated: May 24, 2019 1:08:09 PM
* REW Settings:
*  C-weighting compensation: Off
*  Target level: 75.0 dB
* Note: ; 
* Measurement: KZ ZS7 - L
* Smoothing: 1/48 octave
* Frequency Step: 1/24 octave
* Start Frequency: 20.000 Hz
*
* Freq(Hz)	SPL(dB)	Phase(degrees)
20.000000	89.155449	-164.7238
20.600000	89.230728	-165.7171
21.200001	89.260834	-166.5981
21.799999	89.263733	-167.4744
22.400000	89.256668	-168.3317
23.000000	89.252670	-169.2614
23.600000	89.246941	-170.2934
24.299999	89.234306	-171.5059
25.000000	89.232422	-172.6260
25.799999	89.252731	-173.8693
26.500000	89.271362	-174.9426
27.200001	89.282677	-175.9114
28.000000	89.294777	-176.8920
29.000000	89.298958	-178.0634
30.000000	89.283600	-179.1444
30.700001	89.272957	-179.8963
31.500000	89.255043	179.1849
32.500000	89.224838	178.0511
33.500000	89.200081	176.9355
34.500000	89.178009	175.8980
35.500000	89.172943	174.9131
36.500000	89.160042	173.8760
37.500000	89.125977	172.9683
38.700001	89.102730	172.0432
40.000000	89.073769	170.7874
41.200001	89.017303	169.8359
42.500000	88.995377	168.7642
43.700001	88.945229	167.7607
45.000000	88.904533	166.9533
46.200001	88.893799	166.0410
47.500000	88.826439	165.0286
48.700001	88.789688	164.3072
50.000000	88.742065	163.3455
51.500000	88.684525	162.3374
53.000000	88.618340	161.4746
54.500000	88.582695	160.5198
56.000000	88.508392	159.5911
58.000000	88.438904	158.5495
60.000000	88.390579	157.2357
61.500000	88.299980	156.4521
63.000000	88.238251	155.7527
65.000000	88.151360	154.8141
67.000000	88.065636	153.8433
69.000000	87.986191	152.8484
71.000000	87.900627	151.9372
73.000000	87.812889	151.1047
75.000000	87.723442	150.2553
77.500000	87.629974	149.2610
80.000000	87.530571	148.3020
82.500000	87.429245	147.4363
85.000000	87.308769	146.4968
87.500000	87.209862	145.5453
90.000000	87.102859	144.7480
92.500000	87.005089	143.9381
95.000000	86.891594	143.1056
97.500000	86.786209	142.4344
100.000000	86.690300	141.6827
103.000000	86.569366	140.8625
106.000000	86.435440	140.0762
109.000000	86.315132	139.3300
112.000000	86.189682	138.6061
115.000000	86.072128	137.8979
118.000000	85.950783	137.2267
122.000000	85.806877	136.3666
125.000000	85.678940	135.7307
128.000000	85.564926	135.1902
132.000000	85.411911	134.4506
136.000000	85.268837	133.7349
140.000000	85.123459	133.0430
145.000000	84.945518	132.3000
150.000000	84.766319	131.5576
155.000000	84.592758	130.8423
160.000000	84.418571	130.2097
165.000000	84.260284	129.6148
170.000000	84.098289	129.0232
175.000000	83.938324	128.5083
180.000000	83.786064	127.9090
185.000000	83.641083	127.4825
190.000000	83.477478	127.0399
195.000000	83.331871	126.6771
200.000000	83.187622	126.2283
206.000000	83.020607	125.8171
212.000000	82.849144	125.4351
218.000000	82.702560	125.0507
224.000000	82.543282	124.7033
230.000000	82.378738	124.3858
236.000000	82.238892	124.1770
243.000000	82.060143	123.8426
250.000000	81.906601	123.4296
258.000000	81.739761	123.2097
265.000000	81.573952	123.0146
272.000000	81.416946	122.7800
280.000000	81.258194	122.5666
290.000000	81.064186	122.3048
300.000000	80.878906	122.1017
307.000000	80.745728	121.9938
315.000000	80.589760	121.7585
325.000000	80.426674	121.7778
335.000000	80.260216	121.5742
345.000000	80.094223	121.5929
355.000000	79.947197	121.4846
365.000000	79.788300	121.3666
375.000000	79.638153	121.4091
387.000000	79.475296	121.4962
400.000000	79.299545	121.4495
412.000000	79.137917	121.4503
425.000000	78.976830	121.5027
437.000000	78.832504	121.6452
450.000000	78.674133	121.7177
462.000000	78.548187	121.8379
475.000000	78.406944	121.9398
487.000000	78.273987	122.1716
500.000000	78.140221	122.2675
515.000000	78.005974	122.4041
530.000000	77.848114	122.7034
545.000000	77.716782	122.9115
560.000000	77.577209	123.1539
580.000000	77.405106	123.5939
600.000000	77.230194	124.0049
615.000000	77.136368	124.3528
630.000000	76.991272	124.6525
650.000000	76.841652	125.2696
670.000000	76.691200	125.7836
690.000000	76.553017	126.4683
710.000000	76.420410	127.2139
730.000000	76.276245	127.9556
750.000000	76.128593	128.6702
775.000000	75.969238	129.9384
800.000000	75.850761	131.3218
825.000000	75.721359	132.9704
850.000000	75.680954	134.8503
875.000000	75.716072	136.3288
900.000000	75.727470	137.6005
925.000000	75.710777	138.8482
950.000000	75.714165	140.3105
975.000000	75.759766	142.0005
1000.000000	75.812988	142.9355
1030.000000	75.922844	145.3268
1060.000000	76.083214	147.0909
1090.000000	76.247711	148.6492
1120.000000	76.455986	150.0363
1150.000000	76.676453	151.2128
1180.000000	76.912514	152.2866
1220.000000	77.223763	153.5290
1250.000000	77.468163	154.1784
1280.000000	77.702240	154.8005
1320.000000	78.006622	155.6342
1360.000000	78.324524	156.2527
1400.000000	78.635307	156.8079
1450.000000	79.041260	157.4950
1500.000000	79.470413	158.1201
1550.000000	79.917122	158.5161
1600.000000	80.408386	158.8018
1650.000000	80.908157	158.6363
1700.000000	81.461899	158.1785
1750.000000	82.009964	157.3257
1800.000000	82.575615	155.9048
1850.000000	83.144730	153.9819
1900.000000	83.664871	151.3197
1950.000000	84.147408	148.0968
2000.000000	84.521973	144.1774
2060.000000	84.856812	139.1375
2120.000000	84.984177	133.6136
2180.000000	84.912636	128.3455
2240.000000	84.660698	123.6196
2300.000000	84.281174	119.7256
2360.000000	83.823494	116.7869
2430.000000	83.217300	114.5460
2500.000000	82.616196	113.4953
2580.000000	81.944984	113.7415
2650.000000	81.436913	115.0854
2720.000000	81.062027	117.3637
2800.000000	80.851959	120.2420
2900.000000	80.775696	123.1181
3000.000000	80.733566	125.4453
3070.000000	80.682739	127.2692
3150.000000	80.682968	129.6017
3250.000000	80.783447	132.6706
3350.000000	81.020538	135.8990
3450.000000	81.389793	138.7288
3550.000000	81.906418	141.0404
3650.000000	82.527229	142.5229
3750.000000	83.225784	142.7539
3870.000000	84.131599	140.9574
4000.000000	84.955818	135.5144
4120.000000	85.222267	127.6302
4250.000000	84.691238	118.7754
4370.000000	83.544464	113.6816
4500.000000	82.057732	113.3457
4620.000000	80.877403	117.3674
4750.000000	80.222260	124.1494
4870.000000	80.206177	128.7851
5000.000000	80.119858	130.0964
5150.000000	79.368797	130.8516
5300.000000	78.025169	135.5555
5450.000000	77.912689	149.4336
5600.000000	77.858536	152.2902
5800.000000	77.197502	162.1924
6000.000000	77.083801	174.4380
6150.000000	77.280312	-176.0927
6300.000000	77.740265	-166.8031
6500.000000	78.751328	-155.3189
6700.000000	80.304947	-145.5813
6900.000000	82.427925	-139.9346
7100.000000	84.970589	-142.4822
7300.000000	86.521904	-157.8785
7500.000000	85.511284	-174.5007
7750.000000	82.948044	-177.9493
8000.000000	81.030930	-171.1711
8250.000000	80.209808	-161.1829
8500.000000	80.307846	-153.0382
8750.000000	80.826103	-151.2741
9000.000000	80.571762	-156.8152
9250.000000	78.834969	-160.6787
9500.000000	76.636673	-156.2318
9750.000000	75.019272	-146.2090
10000.000000	74.188644	-136.0954
10300.000000	73.776199	-130.1117
10600.000000	72.420967	-130.9830
10900.000000	69.571686	-128.2781
11200.000000	66.332130	-117.8323
11500.000000	63.108631	-100.6232
11800.000000	60.285530	-75.5649
12200.000000	58.447395	-34.2963
12500.000000	59.287373	-8.1018
12800.000000	60.655846	7.0068
13200.000000	61.569458	13.2056
13600.000000	60.989288	10.0809
14000.000000	57.247925	-8.6825
14500.000000	44.422783	-32.7871
15000.000000	49.423382	-104.1465
15500.000000	54.209202	169.7339
16000.000000	57.148800	92.4678
16500.000000	57.787201	156.8564
17000.000000	56.856720	133.6436
17500.000000	52.766396	-85.1084
18000.000000	54.372471	171.0762
18500.000000	53.295189	137.7227
19000.000000	48.963055	-105.9287
19500.000000	56.081085	123.3926
